Wavelength (nm)	Intensity
377.35	810.00
377.48	583.33
377.62	610.00
377.75	606.67
377.88	805.00
378.02	789.00
378.15	791.67
378.28	783.33
378.41	844.33
378.55	810.67
378.68	789.00
378.81	773.67
378.95	800.67
379.08	775.00
379.21	764.67
379.35	822.67
379.48	812.00
379.61	872.33
379.74	795.00
379.88	776.00
380.01	841.67
380.14	894.00
380.28	838.67
380.41	764.67
380.54	810.67
380.68	826.67
380.81	747.00
380.94	810.00
381.07	851.00
381.21	863.00
381.34	795.00
381.47	748.00
381.61	925.00
381.74	804.00
381.87	773.33
382.00	819.67
382.14	885.67
382.27	823.33
382.40	771.67
382.54	863.33
382.67	858.00
382.80	763.00
382.93	774.00
383.07	804.33
383.20	805.33
383.33	830.00
383.47	778.00
383.60	746.67
383.73	925.00
383.86	830.00
384.00	797.67
384.13	785.33
384.26	833.33
384.40	842.67
384.53	802.67
384.66	858.00
384.79	813.00
384.93	789.00
385.06	785.00
385.19	814.67
385.33	912.00
385.46	823.00
385.59	778.00
385.72	816.67
385.86	757.33
385.99	788.33
386.12	791.67
386.25	760.67
386.39	833.00
386.52	852.33
386.65	789.00
386.79	782.33
386.92	786.33
387.05	866.67
387.18	751.00
387.32	774.33
387.45	826.33
387.58	801.00
387.71	792.67
387.85	781.67
387.98	810.00
388.11	810.67
388.25	815.00
388.38	798.33
388.51	831.33
388.64	836.33
388.78	787.00
388.91	769.00
389.04	798.00
389.17	896.67
389.31	809.33
389.44	831.67
389.57	853.00
389.70	834.67
389.84	789.00
389.97	781.33
390.10	786.00
390.24	825.67
390.37	806.67
390.50	786.00
390.63	860.67
390.77	800.00
390.90	807.67
391.03	794.33
391.16	753.67
391.30	786.00
391.43	797.33
391.56	788.00
391.69	773.33
391.83	845.67
391.96	806.67
392.09	786.33
392.22	882.67
392.36	815.67
392.49	770.67
392.62	805.67
392.75	831.00
392.89	851.33
393.02	771.00
393.15	774.33
393.28	756.67
393.42	884.67
393.55	756.33
393.68	782.67
393.81	735.33
393.95	782.00
394.08	782.67
394.21	779.33
394.34	834.67
394.48	825.67
394.61	831.67
394.74	818.00
394.87	850.67
395.01	815.00
395.14	828.67
395.27	781.33
395.40	877.00
395.54	891.00
395.67	805.67
395.80	805.67
395.93	822.00
396.07	778.33
396.20	773.00
396.33	735.33
396.46	777.33
396.59	800.67
396.73	788.00
396.86	766.67
396.99	854.33
397.12	816.00
397.26	802.00
397.39	802.33
397.52	1064.00
397.65	893.00
397.79	799.33
397.92	786.33
398.05	839.33
398.18	777.00
398.32	783.67
398.45	823.00
398.58	815.67
398.71	819.67
398.84	756.33
398.98	793.33
399.11	831.00
399.24	820.33
399.37	785.00
399.51	774.67
399.64	793.67
399.77	798.00
399.90	801.33
400.03	806.33
400.17	762.00
400.30	855.00
400.43	835.67
400.56	799.00
400.70	791.67
400.83	777.33
400.96	773.33
401.09	803.33
401.23	805.33
401.36	855.00
401.49	785.67
401.62	798.67
401.75	785.00
401.89	773.00
402.02	784.67
402.15	807.67
402.28	800.00
402.41	808.00
402.55	788.67
402.68	796.67
402.81	867.67
402.94	838.33
403.08	789.33
403.21	773.33
403.34	831.67
403.47	835.33
403.60	795.00
403.74	838.33
403.87	842.00
404.00	770.00
404.13	780.00
404.26	761.00
404.40	758.00
404.53	804.00
404.66	793.67
404.79	766.33
404.93	833.00
405.06	809.67
405.19	745.67
405.32	798.67
405.45	820.33
405.59	834.67
405.72	795.00
405.85	769.00
405.98	957.67
406.11	773.67
406.25	778.00
406.38	787.67
406.51	811.00
406.64	787.00
406.77	765.33
406.91	749.33
407.04	817.00
407.17	793.33
407.30	808.00
407.43	790.67
407.57	863.67
407.70	846.67
407.83	769.33
407.96	802.00
408.09	760.33
408.23	876.67
408.36	799.33
408.49	789.00
408.62	913.00
408.75	814.67
408.89	772.00
409.02	811.33
409.15	796.33
409.28	866.67
409.41	827.33
409.55	786.67
409.68	908.67
409.81	820.33
409.94	774.33
410.07	805.00
410.20	808.33
410.34	796.33
410.47	806.33
410.60	811.00
410.73	828.00
410.86	771.33
411.00	799.67
411.13	766.67
411.26	809.33
411.39	798.00
411.52	814.33
411.66	784.00
411.79	782.33
411.92	767.00
412.05	799.33
412.18	793.33
412.31	816.00
412.45	834.33
412.58	833.33
412.71	774.00
412.84	810.00
412.97	874.00
413.11	805.67
413.24	799.33
413.37	835.67
413.50	890.00
413.63	815.33
413.76	788.00
413.90	828.00
414.03	784.67
414.16	783.33
414.29	813.67
414.42	799.67
414.56	897.67
414.69	780.33
414.82	798.67
414.95	801.67
415.08	817.67
415.21	795.33
415.35	816.00
415.48	730.33
415.61	842.33
415.74	845.67
415.87	763.33
416.00	816.00
416.14	913.33
416.27	803.00
416.40	774.00
416.53	797.00
416.66	825.33
416.79	795.67
416.93	767.67
417.06	857.00
417.19	803.00
417.32	798.67
417.45	783.67
417.58	748.33
417.72	848.00
417.85	777.33
417.98	794.00
418.11	834.33
418.24	787.33
418.37	796.33
418.51	799.00
418.64	809.67
418.77	876.00
418.90	813.33
419.03	763.33
419.16	809.33
419.29	832.00
419.43	781.00
419.56	756.00
419.69	905.33
419.82	841.00
419.95	798.00
420.08	843.33
420.22	858.67
420.35	916.67
420.48	854.67
420.61	789.67
420.74	748.00
420.87	832.67
421.00	773.67
421.14	793.33
421.27	836.00
421.40	866.67
421.53	809.67
421.66	802.00
421.79	801.67
421.93	797.00
422.06	801.33
422.19	780.33
422.32	842.33
422.45	840.33
422.58	817.00
422.71	785.67
422.85	843.33
422.98	844.00
423.11	762.33
423.24	758.67
423.37	768.00
423.50	770.67
423.63	793.33
423.77	776.67
423.90	760.33
424.03	815.33
424.16	832.33
424.29	796.67
424.42	746.00
424.55	770.67
424.69	766.67
424.82	798.33
424.95	808.00
425.08	774.67
425.21	820.33
425.34	786.67
425.47	806.33
425.60	808.67
425.74	753.67
425.87	782.00
426.00	790.33
426.13	805.00
426.26	774.00
426.39	783.33
426.52	787.67
426.66	865.67
426.79	822.33
426.92	775.67
427.05	894.33
427.18	864.00
427.31	797.67
427.44	793.67
427.57	769.00
427.71	801.00
427.84	762.00
427.97	800.00
428.10	854.00
428.23	809.00
428.36	781.33
428.49	720.67
428.62	930.00
428.76	902.33
428.89	814.33
429.02	749.67
429.15	786.67
429.28	896.00
429.41	785.33
429.54	792.33
429.67	784.00
429.81	823.67
429.94	795.00
430.07	786.33
430.20	851.33
430.33	857.00
430.46	769.00
430.59	762.33
430.72	797.00
430.85	755.00
430.99	794.33
431.12	770.33
431.25	854.33
431.38	871.67
431.51	805.00
431.64	802.67
431.77	871.33
431.90	865.33
432.03	801.67
432.17	772.33
432.30	813.33
432.43	813.00
432.56	800.00
432.69	821.67
432.82	810.00
432.95	851.00
433.08	799.67
433.21	802.67
433.35	793.33
433.48	801.33
433.61	760.67
433.74	791.00
433.87	777.33
434.00	831.33
434.13	778.33
434.26	825.33
434.39	820.67
434.53	831.33
434.66	796.00
434.79	794.00
434.92	777.00
435.05	861.33
435.18	790.33
435.31	813.67
435.44	855.00
435.57	805.67
435.70	802.00
435.84	770.00
435.97	863.33
436.10	900.33
436.23	780.33
436.36	766.33
436.49	794.00
436.62	817.00
436.75	784.33
436.88	810.33
437.01	777.00
437.14	766.67
437.28	748.00
437.41	783.67
437.54	856.67
437.67	831.33
437.80	775.33
437.93	752.67
438.06	909.67
438.19	843.67
438.32	768.33
438.45	769.00
438.58	819.67
438.72	869.33
438.85	838.33
438.98	791.67
439.11	810.33
439.24	864.00
439.37	859.00
439.50	826.67
439.63	848.00
439.76	791.33
439.89	775.33
440.02	778.00
440.15	824.67
440.29	849.33
440.42	800.33
440.55	797.00
440.68	881.67
440.81	915.00
440.94	804.00
441.07	802.00
441.20	890.67
441.33	818.33
441.46	787.67
441.59	785.67
441.72	799.33
441.85	807.33
441.99	837.00
442.12	835.00
442.25	884.67
442.38	824.00
442.51	818.67
442.64	756.67
442.77	801.67
442.90	788.33
443.03	769.33
443.16	788.00
443.29	809.67
443.42	871.67
443.55	778.67
443.68	810.33
443.82	753.00
443.95	790.67
444.08	787.67
444.21	802.67
444.34	768.00
444.47	799.33
444.60	795.00
444.73	821.67
444.86	809.67
444.99	855.67
445.12	818.00
445.25	812.33
445.38	819.00
445.51	843.00
445.64	811.33
445.78	785.33
445.91	754.67
446.04	907.00
446.17	843.33
446.30	750.67
446.43	826.33
446.56	804.00
446.69	765.00
446.82	779.67
446.95	836.67
447.08	854.33
447.21	812.67
447.34	785.67
447.47	845.67
447.60	845.67
447.73	805.00
447.86	834.00
447.99	808.33
448.13	817.67
448.26	829.67
448.39	795.67
448.52	828.67
448.65	832.67
448.78	801.67
448.91	794.00
449.04	830.33
449.17	785.33
449.30	827.67
449.43	823.67
449.56	797.67
449.69	849.00
449.82	804.00
449.95	755.00
450.08	851.00
450.21	832.00
450.34	802.67
450.47	799.67
450.60	832.33
450.73	810.67
450.87	793.00
451.00	816.33
451.13	839.33
451.26	947.67
451.39	794.00
451.52	819.33
451.65	795.33
451.78	794.00
451.91	786.00
452.04	770.33
452.17	884.33
452.30	881.00
452.43	788.33
452.56	786.67
452.69	853.67
452.82	768.67
452.95	840.33
453.08	781.67
453.21	737.33
453.34	842.67
453.47	775.67
453.60	845.67
453.73	882.67
453.86	824.67
453.99	816.33
454.12	811.00
454.25	795.67
454.38	813.67
454.52	765.33
454.65	794.00
454.78	777.33
454.91	752.67
455.04	780.67
455.17	761.00
455.30	762.00
455.43	851.67
455.56	798.33
455.69	765.67
455.82	829.00
455.95	819.67
456.08	762.00
456.21	762.00
456.34	757.67
456.47	735.33
456.60	780.00
456.73	769.00
456.86	792.33
456.99	829.00
457.12	770.00
457.25	788.33
457.38	861.33
457.51	834.67
457.64	812.33
457.77	787.00
457.90	797.00
458.03	781.67
458.16	792.33
458.29	795.00
458.42	788.00
458.55	740.33
458.68	774.33
458.81	786.00
458.94	863.00
459.07	893.33
459.20	750.33
459.33	770.67
459.46	861.67
459.59	889.67
459.72	852.00
459.85	788.00
459.98	870.00
460.11	831.00
460.24	810.33
460.37	766.33
460.50	840.67
460.63	801.33
460.76	785.00
460.89	797.33
461.02	826.67
461.15	830.33
461.28	805.67
461.41	791.67
461.54	873.67
461.67	770.67
461.80	795.67
461.93	842.67
462.06	814.00
462.19	849.33
462.32	782.00
462.45	781.00
462.58	824.33
462.71	787.33
462.84	805.67
462.97	735.00
463.10	779.33
463.23	813.33
463.36	827.00
463.49	814.00
463.62	750.33
463.75	827.33
463.88	786.67
464.01	807.00
464.14	761.33
464.27	879.33
464.40	796.67
464.53	794.67
464.66	831.33
464.79	817.33
464.92	812.33
465.05	775.00
465.18	805.33
465.31	802.67
465.44	798.33
465.57	774.33
465.70	783.67
465.83	896.67
465.96	811.00
466.09	776.00
466.22	838.00
466.35	826.00
466.48	777.33
466.61	772.33
466.74	785.33
466.87	842.67
467.00	833.00
467.13	822.33
467.26	838.00
467.39	757.00
467.52	759.33
467.65	786.33
467.78	860.00
467.91	800.33
468.04	802.33
468.17	786.33
468.30	785.33
468.43	752.33
468.56	764.67
468.69	809.67
468.82	830.00
468.95	762.00
469.08	786.00
469.21	798.33
469.34	832.33
469.47	898.67
469.60	869.67
469.73	813.33
469.86	811.33
469.99	844.33
470.11	769.67
470.24	768.33
470.37	833.33
470.50	805.33
470.63	774.00
470.76	791.67
470.89	842.67
471.02	913.33
471.15	783.67
471.28	798.33
471.41	893.33
471.54	811.00
471.67	789.33
471.80	743.33
471.93	841.00
472.06	817.67
472.19	787.33
472.32	770.33
472.45	904.33
472.58	843.33
472.71	803.00
472.84	773.67
472.97	780.33
473.10	763.67
473.23	837.67
473.36	756.67
473.49	832.67
473.62	833.00
473.74	826.33
473.87	838.33
474.00	770.00
474.13	773.33
474.26	809.67
474.39	832.33
474.52	799.67
474.65	786.33
474.78	796.67
474.91	750.00
475.04	811.00
475.17	910.67
475.30	825.00
475.43	815.67
475.56	849.33
475.69	793.33
475.82	822.67
475.95	773.00
476.08	867.33
476.21	801.33
476.34	826.00
476.46	836.33
476.59	856.67
476.72	786.00
476.85	799.67
476.98	768.33
477.11	847.67
477.24	800.00
477.37	745.67
477.50	784.00
477.63	818.00
477.76	769.67
477.89	741.67
478.02	764.00
478.15	797.00
478.28	780.67
478.41	819.67
478.54	779.67
478.66	836.67
478.79	791.67
478.92	788.67
479.05	786.33
479.18	809.33
479.31	774.67
479.44	778.00
479.57	767.00
479.70	784.00
479.83	808.33
479.96	787.00
480.09	824.67
480.22	935.33
480.35	909.67
480.48	837.00
480.60	806.00
480.73	781.33
480.86	821.33
480.99	798.00
481.12	799.00
481.25	802.67
481.38	858.33
481.51	794.33
481.64	795.67
481.77	829.33
481.90	793.67
482.03	795.67
482.16	792.67
482.29	852.00
482.41	801.67
482.54	831.33
482.67	779.00
482.80	803.67
482.93	835.67
483.06	771.33
483.19	859.33
483.32	826.33
483.45	800.00
483.58	812.33
483.71	834.67
483.84	829.67
483.97	821.67
484.09	802.33
484.22	788.00
484.35	774.00
484.48	752.67
484.61	779.67
484.74	782.67
484.87	812.67
485.00	759.00
485.13	808.67
485.26	759.00
485.39	817.67
485.52	795.33
485.64	863.33
485.77	828.33
485.90	859.67
486.03	761.67
486.16	820.33
486.29	767.00
486.42	792.00
486.55	813.67
486.68	792.33
486.81	819.67
486.94	807.67
487.06	785.00
487.19	828.33
487.32	815.00
487.45	798.67
487.58	786.00
487.71	800.67
487.84	759.67
487.97	825.00
488.10	840.33
488.23	789.67
488.35	752.67
488.48	787.00
488.61	751.00
488.74	781.00
488.87	778.33
489.00	812.67
489.13	889.33
489.26	835.33
489.39	832.00
489.52	840.00
489.64	822.67
489.77	801.67
489.90	804.00
490.03	795.67
490.16	780.00
490.29	786.00
490.42	777.00
490.55	804.67
490.68	767.00
490.81	784.67
490.93	752.00
491.06	853.33
491.19	821.00
491.32	816.67
491.45	829.67
491.58	754.00
491.71	796.33
491.84	789.33
491.97	783.33
492.09	852.33
492.22	818.33
492.35	807.67
492.48	834.67
492.61	821.00
492.74	803.33
492.87	808.00
493.00	792.33
493.12	769.33
493.25	795.00
493.38	799.33
493.51	784.00
493.64	761.67
493.77	797.00
493.90	819.00
494.03	814.67
494.16	857.00
494.28	868.33
494.41	793.00
494.54	799.67
494.67	915.67
494.80	872.00
494.93	796.67
495.06	823.00
495.19	828.00
495.31	805.00
495.44	784.33
495.57	767.67
495.70	819.33
495.83	791.33
495.96	775.33
496.09	818.67
496.22	871.00
496.34	900.00
496.47	789.67
496.60	824.67
496.73	837.67
496.86	846.33
496.99	776.33
497.12	798.33
497.24	743.00
497.37	805.00
497.50	798.00
497.63	772.00
497.76	791.33
497.89	855.00
498.02	834.00
498.15	731.67
498.27	805.33
498.40	853.00
498.53	865.00
498.66	830.67
498.79	843.33
498.92	763.67
499.05	824.00
499.17	810.67
499.30	835.33
499.43	876.33
499.56	824.33
499.69	760.00
499.82	825.00
499.95	777.67
500.07	781.00
500.20	803.33
500.33	845.67
500.46	936.67
500.59	816.33
500.72	804.00
500.85	859.00
500.97	848.00
501.10	846.67
501.23	776.67
501.36	811.33
501.49	870.00
501.62	831.00
501.75	813.33
501.87	848.33
502.00	752.33
502.13	821.33
502.26	829.33
502.39	797.33
502.52	793.33
502.64	754.00
502.77	773.00
502.90	833.00
503.03	805.67
503.16	778.00
503.29	780.00
503.42	856.33
503.54	807.33
503.67	803.67
503.80	812.33
503.93	843.67
504.06	766.33
504.19	800.00
504.31	859.00
504.44	815.33
504.57	824.00
504.70	815.33
504.83	758.00
504.96	820.67
505.08	802.67
505.21	813.33
505.34	897.33
505.47	852.33
505.60	837.00
505.73	850.00
505.85	851.00
505.98	934.00
506.11	799.33
506.24	770.67
506.37	771.33
506.50	823.00
506.62	842.33
506.75	785.67
506.88	771.67
507.01	819.33
507.14	759.33
507.27	793.00
507.39	768.00
507.52	779.00
507.65	790.67
507.78	828.00
507.91	770.33
508.04	861.00
508.16	852.00
508.29	821.67
508.42	789.67
508.55	778.67
508.68	773.00
508.81	849.00
508.93	781.00
509.06	785.33
509.19	833.67
509.32	828.33
509.45	822.33
509.57	821.33
509.70	777.67
509.83	804.33
509.96	762.00
510.09	812.00
510.22	798.67
510.34	802.67
510.47	798.67
510.60	896.00
510.73	819.33
510.86	816.67
510.98	785.00
511.11	784.33
511.24	840.67
511.37	835.67
511.50	806.33
511.63	809.33
511.75	804.67
511.88	809.00
512.01	830.00
512.14	803.67
512.27	816.67
512.39	803.67
512.52	787.67
512.65	808.33
512.78	770.33
512.91	813.67
513.03	808.67
513.16	842.00
513.29	821.33
513.42	794.67
513.55	760.00
513.67	820.00
513.80	763.00
513.93	783.00
514.06	788.00
514.19	821.00
514.31	810.67
514.44	840.33
514.57	803.00
514.70	807.33
514.83	842.67
514.95	789.00
515.08	821.67
515.21	833.33
515.34	793.67
515.47	803.67
515.59	773.67
515.72	816.67
515.85	829.00
515.98	862.00
516.11	822.67
516.23	850.67
516.36	870.67
516.49	818.67
516.62	812.33
516.75	866.67
516.87	859.67
517.00	789.33
517.13	830.00
517.26	849.00
517.39	836.33
517.51	756.67
517.64	810.00
517.77	884.67
517.90	780.00
518.02	801.67
518.15	778.67
518.28	726.67
518.41	799.33
518.54	804.67
518.66	816.00
518.79	772.67
518.92	792.67
519.05	779.00
519.18	802.67
519.30	826.67
519.43	765.67
519.56	782.00
519.69	789.33
519.81	849.67
519.94	797.00
520.07	746.00
520.20	785.33
520.33	814.00
520.45	862.67
520.58	815.67
520.71	835.00
520.84	846.33
520.96	820.00
521.09	802.67
521.22	783.00
521.35	825.00
521.48	835.00
521.60	783.67
521.73	805.00
521.86	857.00
521.99	875.33
522.11	818.67
522.24	802.67
522.37	828.00
522.50	814.33
522.62	858.33
522.75	756.33
522.88	814.67
523.01	786.33
523.14	829.00
523.26	820.00
523.39	874.00
523.52	780.67
523.65	885.67
523.77	843.67
523.90	808.00
524.03	790.33
524.16	801.67
524.28	783.00
524.41	796.33
524.54	804.67
524.67	772.33
524.79	803.67
524.92	825.67
525.05	874.67
525.18	770.00
525.31	845.00
525.43	777.33
525.56	915.33
525.69	785.33
525.82	748.67
525.94	846.67
526.07	841.00
526.20	827.67
526.33	832.67
526.45	916.00
526.58	888.67
526.71	824.00
526.84	800.00
526.96	820.33
527.09	778.00
527.22	795.67
527.35	799.33
527.47	763.33
527.60	868.00
527.73	770.00
527.86	837.33
527.98	824.00
528.11	825.00
528.24	771.00
528.37	802.33
528.49	759.00
528.62	798.67
528.75	836.67
528.88	785.33
529.00	836.00
529.13	852.67
529.26	818.33
529.39	846.00
529.51	925.67
529.64	896.00
529.77	783.67
529.90	800.33
530.02	792.67
530.15	771.67
530.28	746.00
530.40	779.33
530.53	796.33
530.66	827.00
530.79	791.33
530.91	809.00
531.04	788.67
531.17	802.00
531.30	800.33
531.42	803.67
531.55	809.00
531.68	857.67
531.81	782.00
531.93	801.33
532.06	810.33
532.19	765.00
532.31	796.00
532.44	787.00
532.57	828.33
532.70	780.33
532.82	808.00
532.95	837.33
533.08	869.33
533.21	835.00
533.33	769.33
533.46	784.67
533.59	795.33
533.71	902.00
533.84	829.33
533.97	787.33
534.10	787.00
534.22	771.67
534.35	805.33
534.48	813.67
534.61	835.33
534.73	744.33
534.86	777.33
534.99	822.67
535.11	864.33
535.24	817.00
535.37	774.00
535.50	765.33
535.62	768.67
535.75	856.00
535.88	803.67
536.00	771.67
536.13	783.67
536.26	785.33
536.39	787.67
536.51	754.33
536.64	816.67
536.77	792.00
536.89	797.00
537.02	810.00
537.15	818.67
537.28	805.00
537.40	821.67
537.53	786.33
537.66	848.33
537.78	809.33
537.91	766.33
538.04	778.00
538.17	831.00
538.29	817.00
538.42	874.00
538.55	852.33
538.67	831.67
538.80	779.00
538.93	817.67
539.05	803.67
539.18	866.33
539.31	826.33
539.44	819.33
539.56	733.67
539.69	784.33
539.82	784.00
539.94	765.00
540.07	763.67
540.20	858.00
540.32	780.33
540.45	797.33
540.58	789.67
540.71	851.33
540.83	761.67
540.96	789.67
541.09	801.00
541.21	877.00
541.34	858.00
541.47	774.00
541.59	805.67
541.72	877.00
541.85	946.00
541.98	860.00
542.10	810.00
542.23	815.67
542.36	907.00
542.48	813.33
542.61	799.00
542.74	770.00
542.86	795.67
542.99	797.67
543.12	771.00
543.24	821.00
543.37	750.33
543.50	795.33
543.62	786.33
543.75	786.00
543.88	792.33
544.01	817.33
544.13	835.67
544.26	841.00
544.39	784.67
544.51	782.33
544.64	762.67
544.77	823.67
544.89	784.67
545.02	808.00
545.15	792.33
545.27	895.67
545.40	853.00
545.53	831.00
545.65	831.00
545.78	732.33
545.91	751.67
546.03	789.33
546.16	803.33
546.29	783.00
546.41	760.33
546.54	794.67
546.67	776.33
546.79	828.00
546.92	880.67
547.05	750.33
547.17	803.33
547.30	775.67
547.43	822.33
547.56	770.33
547.68	800.33
547.81	766.33
547.94	817.00
548.06	791.00
548.19	769.67
548.32	858.33
548.44	807.33
548.57	818.67
548.70	846.00
548.82	843.67
548.95	826.00
549.08	800.00
549.20	789.33
549.33	889.00
549.45	814.00
549.58	790.00
549.71	758.00
549.83	840.33
549.96	763.33
550.09	804.67
550.21	781.33
550.34	815.67
550.47	787.33
550.59	788.00
550.72	739.00
550.85	795.67
550.97	860.67
551.10	789.67
551.23	793.67
551.35	861.67
551.48	808.00
551.61	793.33
551.73	775.00
551.86	861.00
551.99	861.00
552.11	803.00
552.24	840.00
552.37	802.33
552.49	768.33
552.62	788.00
552.75	826.33
552.87	777.00
553.00	778.67
553.12	801.33
553.25	788.33
553.38	820.67
553.50	846.33
553.63	795.00
553.76	742.67
553.88	794.67
554.01	783.33
554.14	799.67
554.26	845.00
554.39	876.33
554.52	794.67
554.64	800.67
554.77	782.67
554.89	828.00
555.02	829.67
555.15	816.67
555.27	808.33
555.40	807.33
555.53	859.67
555.65	791.33
555.78	770.33
555.91	825.33
556.03	884.33
556.16	765.67
556.29	799.67
556.41	866.00
556.54	852.67
556.66	799.00
556.79	789.33
556.92	798.00
557.04	820.00
557.17	783.00
557.30	779.67
557.42	785.67
557.55	796.00
557.67	815.00
557.80	798.33
557.93	811.00
558.05	808.33
558.18	777.33
558.31	816.33
558.43	838.00
558.56	810.67
558.68	796.00
558.81	774.00
558.94	780.33
559.06	901.33
559.19	782.00
559.32	779.00
559.44	764.00
559.57	792.00
559.69	773.00
559.82	771.00
559.95	774.33
560.07	787.00
560.20	725.67
560.33	794.00
560.45	805.33
560.58	757.67
560.70	801.67
560.83	769.33
560.96	785.33
561.08	790.67
561.21	817.67
561.33	767.00
561.46	757.33
561.59	834.33
561.71	782.67
561.84	812.00
561.97	765.00
562.09	831.33
562.22	771.67
562.34	768.67
562.47	824.00
562.60	813.33
562.72	791.33
562.85	809.67
562.97	795.00
563.10	785.67
563.23	759.67
563.35	774.33
563.48	810.00
563.60	794.00
563.73	814.00
563.86	747.67
563.98	775.67
564.11	785.67
564.23	792.67
564.36	853.67
564.49	799.00
564.61	845.33
564.74	798.33
564.86	774.33
564.99	842.67
565.12	824.00
565.24	846.00
565.37	828.67
565.49	844.33
565.62	851.67
565.75	830.33
565.87	768.00
566.00	917.00
566.12	846.33
566.25	802.33
566.38	835.67
566.50	803.33
566.63	833.33
566.75	792.33
566.88	773.00
567.01	767.00
567.13	782.67
567.26	791.00
567.38	770.00
567.51	837.00
567.64	774.33
567.76	825.00
567.89	808.00
568.01	767.33
568.14	761.67
568.26	810.33
568.39	806.67
568.52	802.00
568.64	822.67
568.77	788.00
568.89	782.67
569.02	776.33
569.15	788.33
569.27	792.33
569.40	808.00
569.52	818.33
569.65	780.33
569.77	784.67
569.90	756.67
570.03	751.00
570.15	856.67
570.28	778.67
570.40	783.67
570.53	787.33
570.66	848.33
570.78	827.67
570.91	803.67
571.03	757.67
571.16	798.33
571.28	747.67
571.41	733.00
571.54	742.00
571.66	733.00
571.79	764.33
571.91	777.67
572.04	751.67
572.16	788.67
572.29	809.33
572.42	765.00
572.54	796.67
572.67	771.67
572.79	807.33
572.92	795.00
573.04	815.00
573.17	841.00
573.29	804.33
573.42	776.00
573.55	818.00
573.67	817.33
573.80	788.00
573.92	752.33
574.05	799.00
574.17	841.33
574.30	792.33
574.43	784.67
574.55	776.33
574.68	791.67
574.80	768.67
574.93	778.00
575.05	765.67
575.18	784.00
575.30	776.67
575.43	817.00
575.56	840.00
575.68	806.67
575.81	782.67
575.93	768.67
576.06	819.00
576.18	826.67
576.31	782.00
576.43	777.67
576.56	887.67
576.69	838.33
576.81	805.00
576.94	774.67
577.06	794.33
577.19	815.00
577.31	800.67
577.44	813.00
577.56	831.67
577.69	799.67
577.82	805.67
577.94	777.00
578.07	748.67
578.19	818.00
578.32	827.67
578.44	773.67
578.57	772.00
578.69	823.67
578.82	802.00
578.94	822.67
579.07	847.00
579.19	823.00
579.32	817.00
579.45	807.00
579.57	780.00
579.70	759.00
579.82	806.33
579.95	787.33
580.07	858.67
580.20	792.33
580.32	804.67
580.45	832.00
580.57	832.00
580.70	829.33
580.82	817.33
580.95	832.67
581.08	766.67
581.20	846.33
581.33	784.33
581.45	816.33
581.58	803.00
581.70	812.33
581.83	725.00
581.95	807.00
582.08	815.67
582.20	778.67
582.33	801.67
582.45	767.33
582.58	774.67
582.70	811.67
582.83	783.33
582.95	798.67
583.08	827.67
583.21	841.00
583.33	811.00
583.46	779.33
583.58	753.33
583.71	819.67
583.83	817.67
583.96	810.67
584.08	837.00
584.21	819.67
584.33	809.67
584.46	795.67
584.58	762.00
584.71	831.33
584.83	828.67
584.96	799.00
585.08	774.00
585.21	880.67
585.33	856.00
585.46	823.67
585.58	831.67
585.71	777.00
585.83	807.33
585.96	841.00
586.08	826.67
586.21	819.67
586.33	842.67
586.46	768.67
586.59	822.67
586.71	771.67
586.84	824.67
586.96	812.33
587.09	751.33
587.21	783.67
587.34	838.67
587.46	799.33
587.59	761.67
587.71	792.33
587.84	775.67
587.96	745.67
588.09	762.33
588.21	815.00
588.34	782.33
588.46	813.33
588.59	780.67
588.71	817.67
588.84	814.00
588.96	795.33
589.09	882.67
589.21	795.00
589.34	772.33
589.46	799.00
589.59	804.33
589.71	841.67
589.84	751.00
589.96	768.67
590.09	793.67
590.21	822.33
590.34	801.33
590.46	802.67
590.59	791.33
590.71	798.00
590.84	832.67
590.96	773.33
591.09	811.00
591.21	806.67
591.34	769.33
591.46	787.00
591.59	842.33
591.71	814.00
591.83	784.00
591.96	750.00
592.08	777.67
592.21	823.33
592.33	808.67
592.46	792.00
592.58	810.00
592.71	827.33
592.83	883.00
592.96	828.00
593.08	844.33
593.21	771.67
593.33	756.00
593.46	783.00
593.58	789.33
593.71	839.33
593.83	845.67
593.96	764.67
594.08	903.67
594.21	794.67
594.33	784.33
594.46	769.67
594.58	747.00
594.71	734.33
594.83	809.33
594.96	796.67
595.08	940.33
595.20	835.67
595.33	813.00
595.45	772.00
595.58	872.00
595.70	808.67
595.83	782.67
595.95	800.00
596.08	803.00
596.20	749.67
596.33	752.00
596.45	797.67
596.58	761.33
596.70	759.33
596.83	785.67
596.95	782.67
597.08	799.00
597.20	761.33
597.32	772.67
597.45	809.33
597.57	786.33
597.70	821.00
597.82	790.00
597.95	797.67
598.07	793.33
598.20	798.33
598.32	787.00
598.45	790.00
598.57	829.67
598.70	845.33
598.82	780.67
598.94	782.67
599.07	847.00
599.19	783.33
599.32	787.00
599.44	709.00
599.57	827.33
599.69	818.33
599.82	786.00
599.94	768.33
600.07	838.00
600.19	818.67
600.31	767.67
600.44	836.33
600.56	900.00
600.69	888.67
600.81	780.00
600.94	784.00
601.06	793.33
601.19	822.67
601.31	830.67
601.44	754.00
601.56	847.67
601.68	826.33
601.81	804.33
601.93	801.67
602.06	816.00
602.18	760.33
602.31	790.33
602.43	853.67
602.56	822.33
602.68	801.00
602.80	795.33
602.93	808.00
603.05	784.67
603.18	808.33
603.30	759.33
603.43	768.67
603.55	798.33
603.68	807.00
603.80	802.67
603.92	795.67
604.05	784.00
604.17	783.67
604.30	757.00
604.42	782.33
604.55	796.67
604.67	825.00
604.79	771.67
604.92	786.33
605.04	782.33
605.17	783.33
605.29	787.67
605.42	771.67
605.54	858.67
605.66	803.00
605.79	816.67
605.91	791.67
606.04	790.33
606.16	781.67
606.29	814.33
606.41	767.67
606.53	789.33
606.66	748.00
606.78	786.67
606.91	783.00
607.03	781.33
607.16	775.33
607.28	762.00
607.40	799.33
607.53	809.00
607.65	754.67
607.78	762.33
607.90	790.33
608.03	886.33
608.15	808.00
608.27	810.67
608.40	751.00
608.52	803.00
608.65	798.33
608.77	823.67
608.89	798.33
609.02	862.67
609.14	867.00
609.27	814.67
609.39	840.00
609.52	784.67
609.64	737.33
609.76	766.67
609.89	786.33
610.01	850.00
610.14	830.00
610.26	794.33
610.38	759.00
610.51	837.67
610.63	780.67
610.76	763.33
610.88	813.33
611.01	854.33
611.13	884.00
611.25	833.00
611.38	770.00
611.50	786.33
611.63	819.00
611.75	809.67
611.87	811.00
612.00	775.00
612.12	839.67
612.25	786.33
612.37	771.67
612.49	850.67
612.62	833.00
612.74	861.67
612.87	800.67
612.99	790.00
613.11	739.67
613.24	784.33
613.36	790.00
613.49	799.67
613.61	793.00
613.73	782.00
613.86	828.67
613.98	762.00
614.11	820.00
614.23	834.67
614.35	843.67
614.48	839.33
614.60	816.33
614.72	790.33
614.85	810.67
614.97	811.00
615.10	800.33
615.22	788.00
615.34	816.33
615.47	853.00
615.59	772.00
615.72	797.67
615.84	813.67
615.96	773.67
616.09	875.00
616.21	793.33
616.34	783.33
616.46	792.67
616.58	818.00
616.71	820.00
616.83	829.00
616.95	829.00
617.08	824.67
617.20	790.33
617.33	754.00
617.45	787.67
617.57	814.00
617.70	805.67
617.82	778.33
617.95	802.67
618.07	862.33
618.19	821.67
618.32	800.33
618.44	778.67
618.56	763.33
618.69	733.00
618.81	747.67
618.94	826.33
619.06	796.33
619.18	786.33
619.31	756.00
619.43	753.67
619.55	814.33
619.68	813.67
619.80	764.33
619.92	802.00
620.05	915.67
620.17	850.33
620.30	802.33
620.42	809.00
620.54	841.67
620.67	783.67
620.79	806.33
620.91	823.33
621.04	854.67
621.16	780.00
621.29	775.00
621.41	747.33
621.53	777.00
621.66	787.67
621.78	784.67
621.90	839.33
622.03	888.00
622.15	817.33
622.27	800.00
622.40	800.33
622.52	775.33
622.64	785.00
622.77	754.00
622.89	817.33
623.02	836.00
623.14	823.00
623.26	824.33
623.39	797.67
623.51	845.00
623.63	782.33
623.76	763.00
623.88	852.33
624.00	804.67
624.13	770.67
624.25	764.33
624.37	760.00
624.50	845.00
624.62	817.67
624.75	761.00
624.87	756.33
624.99	808.67
625.12	774.67
625.24	785.67
625.36	860.33
625.49	827.67
625.61	818.33
625.73	814.67
625.86	839.00
625.98	796.00
626.10	773.33
626.23	762.00
626.35	802.33
626.47	782.33
626.60	753.00
626.72	776.00
626.84	764.00
626.97	806.33
627.09	789.33
627.21	787.33
627.34	901.33
627.46	888.00
627.58	795.33
627.71	812.00
627.83	828.67
627.95	760.67
628.08	802.00
628.20	807.00
628.32	745.67
628.45	727.33
628.57	730.67
628.69	764.67
628.82	796.67
628.94	850.33
629.06	798.67
629.19	778.33
629.31	835.00
629.43	758.67
629.56	806.67
629.68	796.67
629.80	835.67
629.93	762.33
630.05	776.33
630.17	767.67
630.30	787.67
630.42	768.67
630.54	820.67
630.67	797.67
630.79	774.33
630.91	904.33
631.04	812.67
631.16	815.00
631.28	805.67
631.41	780.00
631.53	772.33
631.65	805.67
631.78	812.33
631.90	787.67
632.02	791.67
632.14	717.67
632.27	851.00
632.39	802.00
632.51	775.00
632.64	841.00
632.76	805.00
632.88	769.67
633.01	797.00
633.13	790.67
633.25	799.67
633.38	893.67
633.50	749.33
633.62	741.33
633.75	737.33
633.87	726.33
633.99	804.67
634.11	754.33
634.24	777.67
634.36	781.67
634.48	781.00
634.61	786.00
634.73	811.33
634.85	772.33
634.98	769.00
635.10	780.33
635.22	796.67
635.35	894.00
635.47	813.67
635.59	781.00
635.71	810.33
635.84	839.00
635.96	774.67
636.08	835.33
636.21	769.00
636.33	801.00
636.45	789.67
636.58	770.00
636.70	747.67
636.82	806.00
636.94	776.00
637.07	751.67
637.19	813.67
637.31	818.33
637.44	823.67
637.56	741.00
637.68	806.00
637.81	798.67
637.93	799.33
638.05	755.00
638.17	833.67
638.30	888.33
638.42	790.67
638.54	773.33
638.67	789.33
638.79	788.00
638.91	771.00
639.03	787.33
639.16	779.67
639.28	784.33
639.40	794.33
639.53	767.33
639.65	811.00
639.77	778.67
639.89	794.33
640.02	795.67
640.14	804.33
640.26	756.67
640.39	811.67
640.51	765.00
640.63	808.00
640.75	832.67
640.88	789.67
641.00	764.67
641.12	755.67
641.24	870.00
641.37	782.00
641.49	764.67
641.61	879.00
641.74	774.67
641.86	806.33
641.98	756.00
642.10	802.00
642.23	808.00
642.35	773.33
642.47	802.33
642.60	803.33
642.72	814.67
642.84	738.33
642.96	747.00
643.09	758.33
643.21	753.00
643.33	760.00
643.45	767.67
643.58	822.33
643.70	863.67
643.82	781.00
643.94	785.67
644.07	796.00
644.19	802.67
644.31	800.00
644.44	800.00
644.56	780.33
644.68	754.00
644.80	754.33
644.93	760.33
645.05	756.00
645.17	796.67
645.29	801.00
645.42	798.67
645.54	786.33
645.66	807.67
645.78	792.00
645.91	774.67
646.03	799.33
646.15	857.67
646.27	770.67
646.40	788.33
646.52	813.67
646.64	824.00
646.76	780.00
646.89	737.00
647.01	815.67
647.13	798.00
647.25	824.67
647.38	778.67
647.50	755.67
647.62	820.00
647.74	737.33
647.87	760.00
647.99	788.33
648.11	808.33
648.23	779.67
648.36	742.67
648.48	849.67
648.60	801.33
648.72	767.00
648.85	756.33
648.97	832.00
649.09	809.00
649.21	767.67
649.34	812.33
649.46	817.67
649.58	804.00
649.70	819.33
649.83	773.00
649.95	805.33
650.07	816.33
650.19	815.67
650.32	802.00
650.44	840.33
650.56	805.00
650.68	771.67
650.81	780.00
650.93	771.33
651.05	848.33
651.17	766.33
651.29	803.33
651.42	788.33
651.54	808.67
651.66	764.00
651.78	762.33
651.91	818.67
652.03	902.33
652.15	810.67
652.27	768.33
652.40	792.33
652.52	769.33
652.64	783.67
652.76	767.67
652.88	880.67
653.01	787.33
653.13	750.00
653.25	729.67
653.37	807.33
653.50	827.33
653.62	808.67
653.74	751.33
653.86	823.00
653.98	811.67
654.11	763.00
654.23	774.67
654.35	769.67
654.47	892.00
654.60	778.33
654.72	782.00
654.84	755.67
654.96	824.00
655.08	778.67
655.21	800.67
655.33	780.33
655.45	833.00
655.57	801.33
655.70	792.33
655.82	829.00
655.94	851.67
656.06	815.33
656.18	749.33
656.31	841.00
656.43	812.33
656.55	770.67
656.67	778.00
656.79	784.67
656.92	836.00
657.04	802.67
657.16	774.33
657.28	895.00
657.40	800.00
657.53	825.00
657.65	784.33
657.77	832.67
657.89	835.67
658.01	778.67
658.14	764.00
658.26	820.33
658.38	775.33
658.50	759.00
658.62	749.33
658.75	903.33
658.87	824.67
658.99	815.00
659.11	757.33
659.23	837.00
659.36	883.00
659.48	831.00
659.60	818.00
659.72	798.00
659.84	789.00
659.97	817.00
660.09	826.00
660.21	908.33
660.33	844.67
660.45	747.67
660.58	731.33
660.70	771.67
660.82	783.00
660.94	751.67
661.06	795.33
661.19	836.00
661.31	823.33
661.43	790.67
661.55	791.67
661.67	826.33
661.80	849.33
661.92	790.33
662.04	793.00
662.16	794.00
662.28	845.67
662.40	793.67
662.53	799.67
662.65	813.67
662.77	767.67
662.89	808.33
663.01	774.67
663.14	789.00
663.26	817.00
663.38	792.33
663.50	760.67
663.62	768.33
663.74	792.67
663.87	776.33
663.99	788.67
664.11	797.00
664.23	898.67
664.35	785.00
664.48	764.33
664.60	776.00
664.72	779.00
664.84	752.00
664.96	776.00
665.08	831.67
665.21	801.33
665.33	816.33
665.45	745.33
665.57	787.00
665.69	863.67
665.81	786.33
665.94	757.33
666.06	755.33
666.18	801.33
666.30	779.33
666.42	768.00
666.54	799.33
666.67	807.00
666.79	754.00
666.91	819.67
667.03	775.33
667.15	747.00
667.27	780.67
667.40	761.33
667.52	779.67
667.64	829.33
667.76	775.00
667.88	753.67
668.00	819.67
668.13	830.67
668.25	753.67
668.37	766.00
668.49	778.00
668.61	828.00
668.73	793.33
668.85	804.33
668.98	806.33
669.10	794.00
669.22	768.33
669.34	786.00
669.46	833.67
669.58	780.00
669.71	793.33
669.83	798.33
669.95	780.00
670.07	800.67
670.19	770.67
670.31	779.33
670.43	780.00
670.56	818.67
670.68	840.67
670.80	806.00
670.92	803.33
671.04	842.67
671.16	776.33
671.28	765.67
671.41	778.00
671.53	819.00
671.65	775.00
671.77	792.33
671.89	933.33
672.01	877.33
672.13	830.33
672.26	767.67
672.38	795.67
672.50	754.67
672.62	783.33
672.74	804.00
672.86	784.33
672.98	798.33
673.11	799.00
673.23	789.67
673.35	841.00
673.47	784.67
673.59	802.33
673.71	760.67
673.83	819.00
673.96	898.00
674.08	792.33
674.20	744.33
674.32	786.00
674.44	792.33
674.56	810.67
674.68	813.33
674.80	822.33
674.93	791.00
675.05	782.67
675.17	797.33
675.29	821.67
675.41	821.67
675.53	790.33
675.65	779.67
675.77	775.00
675.90	829.00
676.02	770.67
676.14	758.33
676.26	865.33
676.38	889.00
676.50	798.33
676.62	818.00
676.74	758.67
676.87	784.00
676.99	810.00
677.11	833.00
677.23	803.67
677.35	818.33
677.47	745.00
677.59	773.33
677.71	813.00
677.83	820.67
677.96	804.33
678.08	794.67
678.20	792.00
678.32	766.00
678.44	789.33
678.56	792.00
678.68	917.00
678.80	834.00
678.93	788.67
679.05	800.00
679.17	795.67
679.29	839.67
679.41	798.00
679.53	774.67
679.65	766.33
679.77	790.67
679.89	777.67
680.01	816.67
680.14	817.00
680.26	732.67
680.38	784.00
680.50	814.00
680.62	868.33
680.74	811.67
680.86	786.00
680.98	795.67
681.10	817.67
681.22	890.33
681.35	783.33
681.47	786.67
681.59	764.67
681.71	859.67
681.83	792.00
681.95	766.33
682.07	845.67
682.19	815.67
682.31	785.00
682.43	755.33
682.56	811.00
682.68	752.00
682.80	762.67
682.92	812.00
683.04	791.33
683.16	781.67
683.28	768.00
683.40	821.67
683.52	794.67
683.64	818.33
683.76	759.67
683.89	780.00
684.01	788.00
684.13	844.67
684.25	803.67
684.37	800.67
684.49	834.00
684.61	795.33
684.73	795.33
684.85	787.33
684.97	765.67
685.09	851.33
685.21	767.33
685.34	799.00
685.46	913.33
685.58	818.67
685.70	808.33
685.82	835.00
685.94	766.33
686.06	768.67
686.18	763.67
686.30	778.00
686.42	754.33
686.54	814.33
686.66	764.00
686.79	864.67
686.91	813.33
687.03	914.33
687.15	829.33
687.27	797.33
687.39	794.00
687.51	856.67
687.63	804.33
687.75	849.67
687.87	822.00
687.99	865.00
688.11	764.00
688.23	813.33
688.35	845.33
688.48	827.00
688.60	753.00
688.72	777.33
688.84	802.67
688.96	825.67
689.08	795.00
689.20	783.33
689.32	905.00
689.44	806.33
689.56	751.00
689.68	776.67
689.80	776.00
689.92	770.67
690.04	777.00
690.16	816.33
690.28	811.67
690.41	811.67
690.53	781.00
690.65	830.33
690.77	838.33
690.89	819.67
691.01	795.33
691.13	773.00
691.25	750.00
691.37	787.33
691.49	745.33
691.61	750.33
691.73	861.33
691.85	788.00
691.97	783.67
692.09	758.33
692.21	828.33
692.33	853.67
692.45	818.00
692.57	774.67
692.70	799.00
692.82	808.33
692.94	743.67
693.06	773.00
693.18	795.67
693.30	781.67
693.42	770.33
693.54	807.33
693.66	810.00
693.78	809.00
693.90	776.67
694.02	797.33
694.14	828.00
694.26	778.33
694.38	804.33
694.50	806.67
694.62	810.00
694.74	749.00
694.86	759.67
694.98	791.67
695.10	817.33
695.22	842.00
695.34	770.33
695.46	770.00
695.58	776.00
695.71	805.67
695.83	783.00
695.95	774.00
696.07	854.00
696.19	762.00
696.31	778.67
696.43	755.00
696.55	879.33
696.67	808.00
696.79	775.00
696.91	796.67
697.03	769.33
697.15	862.67
697.27	802.00
697.39	765.67
697.51	822.00
697.63	761.33
697.75	775.33
697.87	801.00
697.99	739.00
698.11	721.33
698.23	755.33
698.35	776.33
698.47	785.00
698.59	795.33
698.71	774.33
698.83	831.33
698.95	775.00
699.07	799.33
699.19	780.33
699.31	789.67
699.43	762.00
699.55	804.00
699.67	780.00
699.79	781.67
699.91	771.00
700.03	799.00
700.15	800.00
700.27	760.00
700.39	794.67
700.51	742.00
700.63	789.33
700.75	786.33
700.87	807.00
700.99	779.00
701.11	817.33
701.24	783.00
701.36	827.67
701.48	831.33
701.60	811.00
701.72	759.67
701.84	852.67
701.96	812.67
702.08	800.00
702.20	874.33
702.32	817.00
702.44	814.33
702.56	790.00
702.68	785.00
702.80	787.67
702.92	883.33
703.04	866.00
703.16	808.00
703.28	813.67
703.40	788.67
703.52	809.33
703.64	810.33
703.76	801.67
703.88	776.33
704.00	766.00
704.12	797.33
704.24	833.00
704.36	801.67
704.48	807.67
704.60	754.33
704.72	779.33
704.84	782.00
704.96	819.00
705.07	796.33
705.19	754.00
705.31	783.00
705.43	823.67
705.55	775.33
705.67	811.00
705.79	795.67
705.91	736.00
706.03	802.67
706.15	801.33
706.27	787.33
706.39	776.00
706.51	762.33
706.63	769.33
706.75	813.33
706.87	820.00
706.99	860.67
707.11	793.33
707.23	773.33
707.35	809.67
707.47	800.33
707.59	828.67
707.71	838.33
707.83	785.33
707.95	828.00
708.07	780.67
708.19	912.33
708.31	808.33
708.43	762.67
708.55	806.67
708.67	843.33
708.79	808.67
708.91	823.00
709.03	812.00
709.15	841.33
709.27	771.00
709.39	803.67
709.51	787.00
709.63	813.00
709.75	823.33
709.87	753.33
709.99	822.67
710.11	773.00
710.23	764.67
710.35	759.33
710.47	890.33
710.58	845.33
710.70	851.33
710.82	853.00
710.94	794.00
711.06	779.67
711.18	811.00
711.30	780.00
711.42	835.33
711.54	798.67
711.66	828.00
711.78	774.67
711.90	821.00
712.02	862.00
712.14	765.00
712.26	750.33
712.38	839.67
712.50	851.33
712.62	783.67
712.74	779.00
712.86	777.00
712.98	845.00
713.10	781.67
713.22	759.00
713.34	801.00
713.45	777.00
713.57	814.33
713.69	771.33
713.81	776.33
713.93	805.67
714.05	791.33
714.17	763.67
714.29	855.67
714.41	836.33
714.53	788.33
714.65	813.67
714.77	792.67
714.89	744.00
715.01	848.67
715.13	759.67
715.25	798.67
715.37	774.33
715.49	756.67
715.61	821.00
715.72	809.00
715.84	845.33
715.96	791.67
716.08	783.00
716.20	870.67
716.32	839.00
716.44	797.00
716.56	790.33
716.68	796.33
716.80	868.00
716.92	854.33
717.04	807.00
717.16	823.33
717.28	801.00
717.40	783.00
717.52	812.00
717.63	779.00
717.75	800.67
717.87	799.00
717.99	814.00
718.11	780.67
718.23	853.67
718.35	812.00
718.47	805.67
718.59	747.33
718.71	793.67
718.83	772.33
718.95	827.33
719.07	751.00
719.19	778.33
719.30	795.33
719.42	810.00
719.54	795.33
719.66	803.00
719.78	797.33
719.90	744.67
720.02	796.33
720.14	803.67
720.26	830.33
720.38	831.00
720.50	773.33
720.62	730.67
720.74	804.67
720.85	806.33
720.97	846.67
721.09	889.67
721.21	795.00
721.33	863.33
721.45	808.67
721.57	813.67
721.69	763.00
721.81	745.67
721.93	843.67
722.05	808.00
722.16	762.33
722.28	749.00
722.40	783.33
722.52	847.67
722.64	850.00
722.76	771.67
722.88	811.33
723.00	818.33
723.12	774.33
723.24	797.67
723.36	742.00
723.47	830.67
723.59	810.33
723.71	785.00
723.83	810.33
723.95	780.67
724.07	799.00
724.19	810.33
724.31	869.33
724.43	763.67
724.55	723.33
724.66	771.33
724.78	921.00
724.90	763.00
725.02	766.33
725.14	777.33
725.26	802.67
725.38	740.00
725.50	789.33
725.62	808.00
725.74	786.67
725.85	788.67
725.97	799.33
726.09	860.33
726.21	1134.00
726.33	832.00
726.45	794.00
726.57	770.67
726.69	805.67
726.81	799.00
726.92	790.33
727.04	806.33
727.16	816.00
727.28	787.67
727.40	785.00
727.52	807.00
727.64	909.67
727.76	871.00
727.88	824.67
727.99	763.33
728.11	759.00
728.23	785.33
728.35	778.33
728.47	784.67
728.59	787.00
728.71	804.33
728.83	798.33
728.94	811.67
729.06	878.33
729.18	856.00
729.30	818.00
729.42	808.67
729.54	866.67
729.66	879.33
729.78	803.67
729.90	807.00
730.01	765.67
730.13	726.67
730.25	800.33
730.37	785.00
730.49	825.00
730.61	814.33
730.73	806.00
730.84	831.33
730.96	813.33
731.08	807.33
731.20	796.33
731.32	808.00
731.44	940.67
731.56	798.00
731.68	767.00
731.79	802.67
731.91	777.67
732.03	787.67
732.15	796.67
732.27	762.00
732.39	777.00
732.51	829.33
732.62	774.00
732.74	779.00
732.86	836.67
732.98	807.00
733.10	804.33
733.22	814.67
733.34	820.33
733.45	741.67
733.57	795.00
733.69	754.33
733.81	783.33
733.93	795.33
734.05	725.67
734.17	801.00
734.28	800.33
734.40	798.67
734.52	781.67
734.64	794.33
734.76	865.00
734.88	804.67
735.00	768.67
735.11	796.33
735.23	837.67
735.35	785.67
735.47	747.67
735.59	838.00
735.71	797.67
735.83	803.00
735.94	816.67
736.06	804.67
736.18	851.00
736.30	844.00
736.42	819.00
736.54	811.00
736.65	827.33
736.77	943.00
736.89	843.00
737.01	804.00
737.13	903.00
737.25	738.00
737.36	765.67
737.48	784.67
737.60	801.00
737.72	794.33
737.84	796.67
737.96	836.67
738.08	798.00
738.19	888.67
738.31	790.00
738.43	812.00
738.55	794.67
738.67	799.33
738.79	775.33
738.90	800.00
739.02	810.67
739.14	779.33
739.26	796.33
739.38	798.33
739.50	809.67
739.61	788.00
739.73	800.33
739.85	802.00
739.97	818.67
740.09	851.33
740.20	756.00
740.32	806.33
740.44	823.33
740.56	768.33
740.68	802.33
740.80	801.33
740.91	788.67
741.03	829.67
741.15	817.67
741.27	786.00
741.39	840.33
741.51	815.00
741.62	837.67
741.74	790.33
741.86	797.33
741.98	785.67
742.10	808.33
742.21	805.00
742.33	808.00
742.45	770.00
742.57	859.67
742.69	791.67
742.80	825.33
742.92	789.33
743.04	800.00
743.16	796.67
743.28	846.67
743.40	770.33
743.51	775.00
743.63	758.33
743.75	805.00
743.87	808.00
743.99	822.67
744.10	794.33
744.22	798.33
744.34	783.00
744.46	833.67
744.58	825.67
744.69	740.67
744.81	811.00
744.93	758.67
745.05	760.00
745.17	880.00
745.28	863.33
745.40	836.67
745.52	797.00
745.64	811.00
745.76	828.67
745.87	799.00
745.99	782.00
746.11	808.33
746.23	770.67
746.35	791.67
746.46	773.33
746.58	892.00
746.70	812.67
746.82	807.00
746.94	791.00
747.05	776.33
747.17	762.67
747.29	750.33
747.41	781.67
747.53	919.33
747.64	790.00
747.76	838.33
747.88	852.33
748.00	833.33
748.12	808.33
748.23	800.33
748.35	817.33
748.47	840.33
748.59	844.00
748.70	783.00
748.82	766.33
748.94	759.00
749.06	783.67
749.18	794.33
749.29	776.67
749.41	816.33
749.53	801.67
749.65	800.67
749.76	835.00
749.88	787.33
750.00	812.00
750.12	836.33
750.24	811.00
750.35	803.33
750.47	765.00
750.59	830.00
750.71	799.33
750.82	829.00
750.94	781.67
751.06	795.00
751.18	781.67
751.30	832.33
751.41	834.33
751.53	835.67
751.65	782.33
751.77	784.67
751.88	817.33
752.00	846.67
752.12	760.33
752.24	853.67
752.35	815.33
752.47	829.00
752.59	851.00
752.71	882.33
752.83	777.33
752.94	866.33
753.06	778.00
753.18	804.67
753.30	779.00
753.41	741.33
753.53	789.33
753.65	778.33
753.77	842.00
753.88	772.00
754.00	807.67
754.12	805.00
754.24	870.00
754.35	773.33
754.47	742.67
754.59	825.67
754.71	823.33
754.82	799.33
754.94	788.33
755.06	853.67
755.18	817.00
755.29	810.00
755.41	787.00
755.53	838.00
755.65	774.00
755.76	809.33
755.88	806.67
756.00	854.67
756.12	786.33
756.23	715.33
756.35	771.00
756.47	833.00
756.59	785.00
756.70	777.00
756.82	780.00
756.94	779.00
757.06	824.00
757.17	820.67
757.29	791.00
757.41	754.67
757.53	823.67
757.64	808.33
757.76	814.33
757.88	821.67
758.00	819.00
758.11	787.33
758.23	761.33
758.35	822.00
758.47	774.67
758.58	828.00
758.70	761.00
758.82	779.00
758.94	763.00
759.05	791.33
759.17	757.33
759.29	784.67
759.40	853.00
759.52	779.67
759.64	786.67
759.76	812.33
759.87	821.67
759.99	823.00
760.11	778.00
760.23	806.67
760.34	827.00
760.46	821.00
760.58	799.00
760.70	802.33
760.81	855.00
760.93	809.33
761.05	826.00
761.16	801.33
761.28	791.67
761.40	780.00
761.52	763.00
761.63	855.00
761.75	805.67
761.87	793.67
761.98	762.00
762.10	827.67
762.22	808.33
762.34	840.67
762.45	787.33
762.57	836.33
762.69	928.67
762.81	805.33
762.92	826.00
763.04	756.33
763.16	834.33
763.27	828.67
763.39	793.67
763.51	838.00
763.63	829.00
763.74	790.33
763.86	755.00
763.98	774.00
764.09	782.67
764.21	798.67
764.33	764.00
764.44	778.33
764.56	806.33
764.68	778.00
764.80	807.33
764.91	754.33
765.03	861.00
765.15	799.00
765.26	796.67
765.38	762.00
765.50	835.67
765.62	800.33
765.73	804.33
765.85	809.33
765.97	756.33
766.08	803.67
766.20	809.67
766.32	817.67
766.43	837.67
766.55	826.33
766.67	789.00
766.79	807.00
766.90	775.67
767.02	733.33
767.14	761.67
767.25	763.33
767.37	884.00
767.49	817.00
767.60	800.00
767.72	854.33
767.84	820.67
767.95	787.33
768.07	774.33
768.19	824.33
768.31	833.33
768.42	809.00
768.54	790.67
768.66	793.33
768.77	831.67
768.89	789.67
769.01	774.33
769.12	824.67
769.24	817.33
769.36	774.00
769.47	768.33
769.59	758.00
769.71	810.33
769.82	790.33
769.94	772.00
770.06	758.67
770.17	832.67
770.29	811.67
770.41	840.67
770.53	816.33
770.64	764.67
770.76	812.67
770.88	828.00
770.99	824.00
771.11	773.00
771.23	812.67
771.34	800.33
771.46	886.33
771.58	852.33
771.69	833.00
771.81	805.00
771.93	852.00
772.04	776.33
772.16	841.67
772.28	805.00
772.39	853.00
772.51	805.33
772.63	832.33
772.74	787.67
772.86	801.33
772.98	902.33
773.09	771.67
773.21	787.00
773.33	832.33
773.44	821.00
773.56	797.00
773.68	802.67
773.79	843.33
773.91	788.67
774.03	810.33
774.14	798.67
774.26	842.00
774.38	769.00
774.49	754.67
774.61	805.00
774.73	804.33
774.84	783.67
774.96	782.00
775.08	808.33
775.19	827.00
775.31	855.00
775.43	816.67
775.54	781.33
775.66	754.33
775.77	844.33
775.89	775.33
776.01	832.33
776.12	840.67
776.24	816.33
776.36	772.00
776.47	784.00
776.59	814.00
776.71	841.00
776.82	736.67
776.94	764.33
777.06	795.67
777.17	871.67
777.29	766.33
777.41	772.00
777.52	822.67
777.64	816.00
777.75	829.67
777.87	750.00
777.99	786.33
778.10	842.33
778.22	781.67
778.34	810.67
778.45	801.33
778.57	844.00
778.69	836.00
778.80	811.67
778.92	904.00
779.04	817.00
779.15	803.00
779.27	845.00
779.38	826.00
779.50	863.00
779.62	754.33
779.73	800.33
779.85	756.00
779.97	908.67
780.08	805.00
780.20	790.00
780.31	831.00
780.43	847.33
780.55	786.00
780.66	812.00
780.78	828.67
780.90	894.00
781.01	781.33
781.13	794.33
781.25	798.67
781.36	844.67
781.48	774.00
781.59	808.33
781.71	845.33
781.83	819.67
781.94	777.00
782.06	773.67
782.18	847.00
782.29	803.00
782.41	757.33
782.52	851.00
782.64	848.67
782.76	820.33
782.87	823.67
782.99	800.00
783.10	921.33
783.22	942.33
783.34	809.00
783.45	813.33
783.57	812.00
783.69	784.33
783.80	823.00
783.92	846.00
784.03	800.00
784.15	778.33
784.27	805.67
784.38	798.67
784.50	811.33
784.61	813.00
784.73	778.67
784.85	795.67
784.96	797.33
785.08	857.33
785.19	847.00
785.31	796.00
785.43	772.00
785.54	768.67
785.66	833.67
785.77	821.33
785.89	824.00
786.01	763.33
786.12	800.67
786.24	808.33
786.35	871.67
786.47	818.33
786.59	793.33
786.70	756.00
786.82	818.33
786.93	820.33
787.05	794.00
787.17	833.33
787.28	807.33
787.40	825.67
787.51	825.67
787.63	830.33
787.75	767.67
787.86	815.33
787.98	837.00
788.09	804.67
788.21	825.67
788.33	842.33
788.44	826.67
788.56	787.00
788.67	824.67
788.79	788.33
788.91	798.33
789.02	783.00
789.14	794.67
789.25	890.33
789.37	839.67
789.48	781.67
789.60	812.67
789.72	772.67
789.83	832.33
789.95	808.33
790.06	758.67
790.18	778.67
790.30	833.33
790.41	817.00
790.53	785.00
790.64	765.00
790.76	761.67
790.87	796.33
790.99	810.33
791.11	814.00
791.22	788.33
791.34	807.67
791.45	842.00
791.57	833.00
791.68	800.67
791.80	788.00
791.92	834.67
792.03	781.33
792.15	769.00
792.26	792.00
792.38	752.33
792.49	831.33
792.61	798.00
792.73	812.67
792.84	799.67
792.96	894.67
793.07	797.00
793.19	1548.33
793.30	881.33
793.42	836.67
793.54	745.33
793.65	768.00
793.77	922.67
793.88	807.00
794.00	759.67
794.11	811.00
794.23	756.67
794.34	807.00
794.46	741.33
794.58	750.67
794.69	880.00
794.81	878.33
794.92	775.00
795.04	772.00
795.15	873.33
795.27	836.33
795.39	811.00
795.50	773.67
795.62	776.67
795.73	784.00
795.85	775.33
795.96	819.67
796.08	856.00
796.19	792.00
796.31	791.67
796.42	776.33
796.54	770.00
796.66	832.00
796.77	754.67
796.89	754.00
797.00	843.33
797.12	728.00
797.23	792.67
797.35	816.33
797.46	828.00
797.58	843.33
797.69	821.00
797.81	796.67
797.93	799.00
798.04	772.67
798.16	772.33
798.27	817.33
798.39	771.00
798.50	757.00
798.62	759.67
798.73	755.00
798.85	865.00
798.96	804.33
799.08	822.00
799.19	831.33
799.31	805.00
799.43	802.33
799.54	786.33
799.66	812.33
799.77	828.67
799.89	765.33
800.00	733.67
800.12	791.33
800.23	860.67
800.35	886.00
800.46	752.67
800.58	732.67
800.69	789.33
800.81	781.67
800.92	765.00
801.04	800.33
801.16	738.00
801.27	744.00
801.39	764.33
801.50	782.00
801.62	798.33
801.73	841.67
801.85	835.33
801.96	763.67
802.08	847.00
802.19	843.67
802.31	791.00
802.42	804.67
802.54	876.33
802.65	857.00
802.77	774.00
802.88	830.00
803.00	758.00
803.11	890.00
803.23	799.67
803.34	795.67
803.46	813.33
803.57	754.00
803.69	837.67
803.80	759.33
803.92	842.33
804.03	794.00
804.15	810.67
804.26	824.00
804.38	838.33
804.50	778.67
804.61	805.67
804.73	811.33
804.84	800.33
804.96	735.00
805.07	807.00
805.19	778.00
805.30	832.33
805.42	852.00
805.53	801.33
805.65	775.00
805.76	757.33
805.88	779.33
805.99	813.67
806.11	828.00
806.22	774.67
806.34	775.67
806.45	801.33
806.57	777.33
806.68	836.00
806.80	725.67
806.91	765.33
807.03	759.67
807.14	745.00
807.26	747.33
807.37	753.33
807.49	805.00
807.60	777.33
807.72	858.33
807.83	874.33
807.95	806.00
808.06	817.67
808.17	814.33
808.29	836.67
808.40	760.33
808.52	808.00
808.63	809.67
808.75	821.67
808.86	791.67
808.98	813.67
809.09	777.67
809.21	819.33
809.32	776.67
809.44	820.67
809.55	763.67
809.67	804.00
809.78	769.67
809.90	830.33
810.01	861.33
810.13	784.67
810.24	837.33
810.36	749.67
810.47	769.33
810.59	804.33
810.70	822.67
810.82	836.00
810.93	765.00
811.05	763.67
811.16	786.67
811.27	761.00
811.39	799.33
811.50	845.33
811.62	738.33
811.73	734.67
811.85	806.33
811.96	814.67
812.08	830.67
812.19	804.33
812.31	813.00
812.42	790.67
812.54	780.67
812.65	843.00
812.77	844.33
812.88	843.67
813.00	838.67
813.11	825.33
813.22	780.33
813.34	788.67
813.45	801.67
813.57	882.67
813.68	876.67
813.80	801.33
813.91	771.67
814.03	791.33
814.14	886.00
814.26	793.33
814.37	799.33
814.49	799.00
814.60	787.33
814.71	779.67
814.83	802.00
814.94	764.00
815.06	784.33
815.17	797.67
815.29	799.33
815.40	770.00
815.52	877.33
815.63	792.67
815.75	781.33
815.86	806.67
815.97	762.33
816.09	806.67
816.20	810.00
816.32	825.33
816.43	757.33
816.55	803.67
816.66	777.67
816.78	890.67
816.89	801.00
817.00	803.67
817.12	782.00
817.23	776.00
817.35	842.33
817.46	815.33
817.58	770.67
817.69	917.00
817.81	820.33
817.92	836.33
818.03	812.00
818.15	809.00
818.26	767.67
818.38	766.00
818.49	799.00
818.61	806.00
818.72	769.00
818.83	1802.00
818.95	932.33
819.06	787.67
819.18	787.67
819.29	811.67
819.41	807.67
819.52	810.67
819.64	817.67
819.75	777.33
819.86	759.67
819.98	790.33
820.09	822.67
820.21	804.00
820.32	778.00
820.44	811.00
820.55	866.00
820.66	791.33
820.78	836.33
820.89	802.33
821.01	821.33
821.12	810.00
821.23	809.67
821.35	785.33
821.46	848.67
821.58	810.33
821.69	784.33
821.81	783.33
821.92	859.33
822.03	803.67
822.15	811.67
822.26	767.00
822.38	769.67
822.49	828.00
822.61	812.67
822.72	809.67
822.83	848.67
822.95	804.67
823.06	809.67
823.18	849.00
823.29	868.67
823.40	827.33
823.52	795.33
823.63	764.67
823.75	896.00
823.86	802.67
823.97	758.00
824.09	834.67
824.20	780.00
824.32	815.33
824.43	802.67
824.55	842.00
824.66	889.33
824.77	808.67
824.89	827.67
825.00	866.00
825.12	815.33
825.23	826.67
825.34	758.33
825.46	775.00
825.57	836.00
825.69	793.33
825.80	745.67
825.91	786.67
826.03	758.00
826.14	820.33
826.26	772.67
826.37	814.33
826.48	793.00
826.60	811.00
826.71	789.67
826.83	810.67
826.94	827.67
827.05	853.67
827.17	840.33
827.28	798.67
827.39	787.33
827.51	767.00
827.62	809.67
827.74	815.00
827.85	803.00
827.96	779.00
828.08	786.00
828.19	889.67
828.31	796.33
828.42	746.00
828.53	821.67
828.65	850.00
828.76	863.00
828.87	821.67
828.99	775.33
