Wavelength (nm)	Intensity
377.35	790.00
377.48	595.00
377.62	593.00
377.75	611.00
377.88	819.00
378.02	793.00
378.15	788.00
378.28	778.00
378.41	839.00
378.55	789.00
378.68	795.00
378.81	784.00
378.95	792.00
379.08	790.00
379.21	744.00
379.35	806.00
379.48	830.00
379.61	890.00
379.74	793.00
379.88	782.00
380.01	840.00
380.14	916.00
380.28	843.00
380.41	777.00
380.54	811.00
380.68	811.00
380.81	741.00
380.94	827.00
381.07	843.00
381.21	858.00
381.34	779.00
381.47	753.00
381.61	925.00
381.74	802.00
381.87	769.00
382.00	819.00
382.14	882.00
382.27	836.00
382.40	778.00
382.54	865.00
382.67	848.00
382.80	775.00
382.93	782.00
383.07	796.00
383.20	805.00
383.33	836.00
383.47	782.00
383.60	748.00
383.73	952.00
383.86	830.00
384.00	795.00
384.13	775.00
384.26	828.00
384.40	842.00
384.53	803.00
384.66	854.00
384.79	814.00
384.93	778.00
385.06	786.00
385.19	816.00
385.33	927.00
385.46	829.00
385.59	778.00
385.72	833.00
385.86	776.00
385.99	784.00
386.12	790.00
386.25	770.00
386.39	835.00
386.52	842.00
386.65	790.00
386.79	785.00
386.92	785.00
387.05	869.00
387.18	762.00
387.32	777.00
387.45	834.00
387.58	799.00
387.71	783.00
387.85	774.00
387.98	802.00
388.11	817.00
388.25	796.00
388.38	804.00
388.51	851.00
388.64	843.00
388.78	776.00
388.91	756.00
389.04	789.00
389.17	901.00
389.31	808.00
389.44	852.00
389.57	869.00
389.70	825.00
389.84	799.00
389.97	790.00
390.10	777.00
390.24	820.00
390.37	792.00
390.50	780.00
390.63	849.00
390.77	794.00
390.90	798.00
391.03	816.00
391.16	761.00
391.30	794.00
391.43	788.00
391.56	784.00
391.69	773.00
391.83	851.00
391.96	797.00
392.09	777.00
392.22	857.00
392.36	811.00
392.49	768.00
392.62	800.00
392.75	811.00
392.89	853.00
393.02	767.00
393.15	767.00
393.28	753.00
393.42	868.00
393.55	760.00
393.68	796.00
393.81	741.00
393.95	797.00
394.08	788.00
394.21	776.00
394.34	819.00
394.48	821.00
394.61	837.00
394.74	826.00
394.87	833.00
395.01	809.00
395.14	827.00
395.27	801.00
395.40	887.00
395.54	901.00
395.67	804.00
395.80	776.00
395.93	815.00
396.07	781.00
396.20	776.00
396.33	740.00
396.46	772.00
396.59	794.00
396.73	802.00
396.86	773.00
396.99	860.00
397.12	816.00
397.26	810.00
397.39	801.00
397.52	1073.00
397.65	905.00
397.79	804.00
397.92	778.00
398.05	840.00
398.18	766.00
398.32	784.00
398.45	824.00
398.58	826.00
398.71	825.00
398.84	779.00
398.98	793.00
399.11	818.00
399.24	800.00
399.37	774.00
399.51	762.00
399.64	805.00
399.77	793.00
399.90	790.00
400.03	790.00
400.17	762.00
400.30	856.00
400.43	817.00
400.56	794.00
400.70	788.00
400.83	766.00
400.96	772.00
401.09	817.00
401.23	818.00
401.36	859.00
401.49	769.00
401.62	791.00
401.75	793.00
401.89	771.00
402.02	791.00
402.15	810.00
402.28	809.00
402.41	806.00
402.55	788.00
402.68	809.00
402.81	875.00
402.94	840.00
403.08	775.00
403.21	745.00
403.34	842.00
403.47	823.00
403.60	782.00
403.74	803.00
403.87	823.00
404.00	763.00
404.13	785.00
404.26	759.00
404.40	757.00
404.53	811.00
404.66	788.00
404.79	762.00
404.93	812.00
405.06	816.00
405.19	746.00
405.32	796.00
405.45	822.00
405.59	840.00
405.72	817.00
405.85	775.00
405.98	948.00
406.11	760.00
406.25	773.00
406.38	806.00
406.51	832.00
406.64	796.00
406.77	757.00
406.91	757.00
407.04	805.00
407.17	782.00
407.30	816.00
407.43	802.00
407.57	891.00
407.70	875.00
407.83	764.00
407.96	793.00
408.09	757.00
408.23	876.00
408.36	789.00
408.49	777.00
408.62	919.00
408.75	809.00
408.89	790.00
409.02	818.00
409.15	806.00
409.28	865.00
409.41	826.00
409.55	782.00
409.68	900.00
409.81	817.00
409.94	793.00
410.07	801.00
410.20	817.00
410.34	793.00
410.47	802.00
410.60	798.00
410.73	834.00
410.86	766.00
411.00	796.00
411.13	777.00
411.26	789.00
411.39	795.00
411.52	818.00
411.66	800.00
411.79	790.00
411.92	783.00
412.05	798.00
412.18	775.00
412.31	813.00
412.45	839.00
412.58	842.00
412.71	752.00
412.84	810.00
412.97	866.00
413.11	800.00
413.24	809.00
413.37	845.00
413.50	893.00
413.63	804.00
413.76	781.00
413.90	829.00
414.03	791.00
414.16	777.00
414.29	821.00
414.42	802.00
414.56	903.00
414.69	780.00
414.82	794.00
414.95	824.00
415.08	822.00
415.21	794.00
415.35	820.00
415.48	737.00
415.61	837.00
415.74	849.00
415.87	768.00
416.00	801.00
416.14	910.00
416.27	804.00
416.40	780.00
416.53	807.00
416.66	829.00
416.79	817.00
416.93	760.00
417.06	852.00
417.19	815.00
417.32	781.00
417.45	779.00
417.58	744.00
417.72	851.00
417.85	783.00
417.98	793.00
418.11	808.00
418.24	776.00
418.37	789.00
418.51	803.00
418.64	808.00
418.77	863.00
418.90	818.00
419.03	780.00
419.16	803.00
419.29	827.00
419.43	782.00
419.56	769.00
419.69	903.00
419.82	866.00
419.95	811.00
420.08	850.00
420.22	874.00
420.35	916.00
420.48	841.00
420.61	804.00
420.74	740.00
420.87	830.00
421.00	762.00
421.14	796.00
421.27	843.00
421.40	869.00
421.53	834.00
421.66	793.00
421.79	802.00
421.93	796.00
422.06	803.00
422.19	790.00
422.32	848.00
422.45	853.00
422.58	797.00
422.71	792.00
422.85	837.00
422.98	823.00
423.11	745.00
423.24	750.00
423.37	769.00
423.50	761.00
423.63	796.00
423.77	777.00
423.90	778.00
424.03	835.00
424.16	833.00
424.29	809.00
424.42	758.00
424.55	769.00
424.69	776.00
424.82	795.00
424.95	813.00
425.08	769.00
425.21	819.00
425.34	784.00
425.47	793.00
425.60	817.00
425.74	771.00
425.87	801.00
426.00	789.00
426.13	802.00
426.26	769.00
426.39	776.00
426.52	788.00
426.66	866.00
426.79	823.00
426.92	770.00
427.05	904.00
427.18	873.00
427.31	795.00
427.44	807.00
427.57	776.00
427.71	794.00
427.84	780.00
427.97	802.00
428.10	853.00
428.23	791.00
428.36	777.00
428.49	706.00
428.62	908.00
428.76	883.00
428.89	814.00
429.02	764.00
429.15	794.00
429.28	894.00
429.41	776.00
429.54	796.00
429.67	783.00
429.81	826.00
429.94	804.00
430.07	782.00
430.20	830.00
430.33	865.00
430.46	766.00
430.59	770.00
430.72	792.00
430.85	771.00
430.99	806.00
431.12	784.00
431.25	845.00
431.38	858.00
431.51	818.00
431.64	814.00
431.77	879.00
431.90	869.00
432.03	817.00
432.17	774.00
432.30	805.00
432.43	803.00
432.56	797.00
432.69	815.00
432.82	815.00
432.95	853.00
433.08	807.00
433.21	777.00
433.35	783.00
433.48	794.00
433.61	767.00
433.74	796.00
433.87	786.00
434.00	828.00
434.13	776.00
434.26	824.00
434.39	818.00
434.53	836.00
434.66	784.00
434.79	788.00
434.92	797.00
435.05	873.00
435.18	789.00
435.31	819.00
435.44	855.00
435.57	811.00
435.70	802.00
435.84	781.00
435.97	872.00
436.10	922.00
436.23	782.00
436.36	776.00
436.49	792.00
436.62	820.00
436.75	787.00
436.88	816.00
437.01	777.00
437.14	767.00
437.28	758.00
437.41	775.00
437.54	859.00
437.67	833.00
437.80	769.00
437.93	761.00
438.06	913.00
438.19	847.00
438.32	760.00
438.45	770.00
438.58	813.00
438.72	849.00
438.85	842.00
438.98	798.00
439.11	821.00
439.24	865.00
439.37	852.00
439.50	836.00
439.63	845.00
439.76	793.00
439.89	778.00
440.02	789.00
440.15	830.00
440.29	886.00
440.42	792.00
440.55	784.00
440.68	890.00
440.81	925.00
440.94	803.00
441.07	804.00
441.20	899.00
441.33	824.00
441.46	791.00
441.59	785.00
441.72	788.00
441.85	816.00
441.99	832.00
442.12	836.00
442.25	892.00
442.38	818.00
442.51	827.00
442.64	772.00
442.77	794.00
442.90	778.00
443.03	750.00
443.16	792.00
443.29	815.00
443.42	877.00
443.55	771.00
443.68	806.00
443.82	760.00
443.95	770.00
444.08	771.00
444.21	799.00
444.34	779.00
444.47	803.00
444.60	790.00
444.73	814.00
444.86	811.00
444.99	867.00
445.12	802.00
445.25	810.00
445.38	811.00
445.51	844.00
445.64	802.00
445.78	792.00
445.91	741.00
446.04	910.00
446.17	840.00
446.30	759.00
446.43	817.00
446.56	810.00
446.69	774.00
446.82	772.00
446.95	841.00
447.08	837.00
447.21	795.00
447.34	798.00
447.47	850.00
447.60	821.00
447.73	793.00
447.86	830.00
447.99	806.00
448.13	816.00
448.26	845.00
448.39	812.00
448.52	828.00
448.65	847.00
448.78	787.00
448.91	794.00
449.04	827.00
449.17	780.00
449.30	818.00
449.43	817.00
449.56	790.00
449.69	864.00
449.82	808.00
449.95	748.00
450.08	861.00
450.21	833.00
450.34	804.00
450.47	799.00
450.60	855.00
450.73	810.00
450.87	798.00
451.00	821.00
451.13	844.00
451.26	953.00
451.39	784.00
451.52	819.00
451.65	798.00
451.78	795.00
451.91	774.00
452.04	770.00
452.17	887.00
452.30	879.00
452.43	790.00
452.56	788.00
452.69	858.00
452.82	775.00
452.95	837.00
453.08	770.00
453.21	729.00
453.34	828.00
453.47	780.00
453.60	852.00
453.73	913.00
453.86	823.00
453.99	818.00
454.12	810.00
454.25	796.00
454.38	817.00
454.52	769.00
454.65	794.00
454.78	791.00
454.91	761.00
455.04	787.00
455.17	758.00
455.30	786.00
455.43	848.00
455.56	800.00
455.69	757.00
455.82	816.00
455.95	830.00
456.08	762.00
456.21	762.00
456.34	763.00
456.47	752.00
456.60	796.00
456.73	772.00
456.86	788.00
456.99	808.00
457.12	776.00
457.25	776.00
457.38	836.00
457.51	840.00
457.64	827.00
457.77	785.00
457.90	796.00
458.03	787.00
458.16	789.00
458.29	800.00
458.42	800.00
458.55	746.00
458.68	774.00
458.81	791.00
458.94	866.00
459.07	899.00
459.20	772.00
459.33	782.00
459.46	883.00
459.59	897.00
459.72	847.00
459.85	796.00
459.98	858.00
460.11	829.00
460.24	798.00
460.37	760.00
460.50	834.00
460.63	804.00
460.76	784.00
460.89	800.00
461.02	835.00
461.15	814.00
461.28	792.00
461.41	771.00
461.54	864.00
461.67	766.00
461.80	792.00
461.93	851.00
462.06	815.00
462.19	842.00
462.32	783.00
462.45	783.00
462.58	842.00
462.71	784.00
462.84	785.00
462.97	745.00
463.10	798.00
463.23	813.00
463.36	835.00
463.49	809.00
463.62	757.00
463.75	833.00
463.88	793.00
464.01	795.00
464.14	751.00
464.27	892.00
464.40	789.00
464.53	791.00
464.66	818.00
464.79	817.00
464.92	809.00
465.05	778.00
465.18	808.00
465.31	780.00
465.44	784.00
465.57	780.00
465.70	795.00
465.83	907.00
465.96	805.00
466.09	757.00
466.22	839.00
466.35	803.00
466.48	779.00
466.61	778.00
466.74	793.00
466.87	845.00
467.00	837.00
467.13	837.00
467.26	842.00
467.39	746.00
467.52	762.00
467.65	798.00
467.78	851.00
467.91	784.00
468.04	795.00
468.17	778.00
468.30	789.00
468.43	765.00
468.56	779.00
468.69	813.00
468.82	826.00
468.95	755.00
469.08	790.00
469.21	790.00
469.34	845.00
469.47	887.00
469.60	879.00
469.73	804.00
469.86	817.00
469.99	844.00
470.11	766.00
470.24	779.00
470.37	838.00
470.50	797.00
470.63	765.00
470.76	793.00
470.89	836.00
471.02	897.00
471.15	790.00
471.28	796.00
471.41	879.00
471.54	827.00
471.67	791.00
471.80	734.00
471.93	846.00
472.06	818.00
472.19	799.00
472.32	771.00
472.45	908.00
472.58	837.00
472.71	805.00
472.84	771.00
472.97	778.00
473.10	749.00
473.23	824.00
473.36	746.00
473.49	842.00
473.62	838.00
473.74	820.00
473.87	845.00
474.00	778.00
474.13	783.00
474.26	808.00
474.39	832.00
474.52	817.00
474.65	806.00
474.78	808.00
474.91	757.00
475.04	826.00
475.17	950.00
475.30	830.00
475.43	817.00
475.56	846.00
475.69	801.00
475.82	838.00
475.95	771.00
476.08	860.00
476.21	808.00
476.34	840.00
476.46	820.00
476.59	856.00
476.72	818.00
476.85	800.00
476.98	763.00
477.11	865.00
477.24	809.00
477.37	741.00
477.50	794.00
477.63	808.00
477.76	768.00
477.89	741.00
478.02	773.00
478.15	785.00
478.28	789.00
478.41	814.00
478.54	775.00
478.66	838.00
478.79	791.00
478.92	808.00
479.05	794.00
479.18	810.00
479.31	765.00
479.44	772.00
479.57	780.00
479.70	788.00
479.83	801.00
479.96	775.00
480.09	817.00
480.22	928.00
480.35	905.00
480.48	830.00
480.60	819.00
480.73	793.00
480.86	823.00
480.99	780.00
481.12	775.00
481.25	799.00
481.38	859.00
481.51	778.00
481.64	800.00
481.77	806.00
481.90	797.00
482.03	817.00
482.16	787.00
482.29	853.00
482.41	808.00
482.54	825.00
482.67	776.00
482.80	801.00
482.93	839.00
483.06	773.00
483.19	857.00
483.32	837.00
483.45	805.00
483.58	810.00
483.71	838.00
483.84	857.00
483.97	808.00
484.09	796.00
484.22	773.00
484.35	772.00
484.48	732.00
484.61	772.00
484.74	774.00
484.87	816.00
485.00	759.00
485.13	816.00
485.26	765.00
485.39	825.00
485.52	799.00
485.64	869.00
485.77	820.00
485.90	860.00
486.03	769.00
486.16	818.00
486.29	766.00
486.42	778.00
486.55	808.00
486.68	778.00
486.81	833.00
486.94	814.00
487.06	777.00
487.19	838.00
487.32	830.00
487.45	809.00
487.58	790.00
487.71	797.00
487.84	774.00
487.97	833.00
488.10	853.00
488.23	777.00
488.35	744.00
488.48	789.00
488.61	757.00
488.74	772.00
488.87	774.00
489.00	810.00
489.13	887.00
489.26	838.00
489.39	830.00
489.52	840.00
489.64	826.00
489.77	819.00
489.90	814.00
490.03	803.00
490.16	781.00
490.29	779.00
490.42	777.00
490.55	806.00
490.68	758.00
490.81	775.00
490.93	757.00
491.06	848.00
491.19	821.00
491.32	807.00
491.45	824.00
491.58	761.00
491.71	788.00
491.84	801.00
491.97	770.00
492.09	852.00
492.22	818.00
492.35	818.00
492.48	837.00
492.61	803.00
492.74	784.00
492.87	804.00
493.00	801.00
493.12	780.00
493.25	783.00
493.38	793.00
493.51	765.00
493.64	738.00
493.77	806.00
493.90	824.00
494.03	820.00
494.16	876.00
494.28	890.00
494.41	796.00
494.54	800.00
494.67	892.00
494.80	872.00
494.93	789.00
495.06	817.00
495.19	832.00
495.31	804.00
495.44	791.00
495.57	782.00
495.70	822.00
495.83	795.00
495.96	762.00
496.09	817.00
496.22	889.00
496.34	897.00
496.47	801.00
496.60	819.00
496.73	851.00
496.86	846.00
496.99	770.00
497.12	791.00
497.24	728.00
497.37	805.00
497.50	791.00
497.63	777.00
497.76	808.00
497.89	843.00
498.02	834.00
498.15	743.00
498.27	806.00
498.40	850.00
498.53	873.00
498.66	839.00
498.79	844.00
498.92	774.00
499.05	824.00
499.17	813.00
499.30	823.00
499.43	879.00
499.56	822.00
499.69	771.00
499.82	810.00
499.95	778.00
500.07	773.00
500.20	809.00
500.33	837.00
500.46	922.00
500.59	806.00
500.72	798.00
500.85	862.00
500.97	847.00
501.10	848.00
501.23	775.00
501.36	842.00
501.49	881.00
501.62	829.00
501.75	817.00
501.87	848.00
502.00	752.00
502.13	810.00
502.26	817.00
502.39	784.00
502.52	797.00
502.64	761.00
502.77	782.00
502.90	836.00
503.03	806.00
503.16	783.00
503.29	788.00
503.42	851.00
503.54	818.00
503.67	813.00
503.80	809.00
503.93	835.00
504.06	777.00
504.19	808.00
504.31	866.00
504.44	810.00
504.57	832.00
504.70	827.00
504.83	771.00
504.96	833.00
505.08	784.00
505.21	797.00
505.34	902.00
505.47	863.00
505.60	837.00
505.73	867.00
505.85	840.00
505.98	933.00
506.11	796.00
506.24	781.00
506.37	772.00
506.50	813.00
506.62	859.00
506.75	791.00
506.88	778.00
507.01	828.00
507.14	767.00
507.27	807.00
507.39	769.00
507.52	785.00
507.65	789.00
507.78	836.00
507.91	780.00
508.04	860.00
508.16	861.00
508.29	819.00
508.42	800.00
508.55	765.00
508.68	763.00
508.81	845.00
508.93	779.00
509.06	797.00
509.19	852.00
509.32	834.00
509.45	826.00
509.57	825.00
509.70	764.00
509.83	810.00
509.96	774.00
510.09	807.00
510.22	806.00
510.34	805.00
510.47	805.00
510.60	895.00
510.73	810.00
510.86	827.00
510.98	778.00
511.11	784.00
511.24	857.00
511.37	839.00
511.50	800.00
511.63	817.00
511.75	801.00
511.88	813.00
512.01	822.00
512.14	824.00
512.27	819.00
512.39	804.00
512.52	793.00
512.65	826.00
512.78	782.00
512.91	817.00
513.03	804.00
513.16	841.00
513.29	807.00
513.42	798.00
513.55	781.00
513.67	837.00
513.80	763.00
513.93	776.00
514.06	786.00
514.19	815.00
514.31	807.00
514.44	828.00
514.57	793.00
514.70	806.00
514.83	845.00
514.95	790.00
515.08	828.00
515.21	825.00
515.34	806.00
515.47	813.00
515.59	774.00
515.72	817.00
515.85	822.00
515.98	849.00
516.11	807.00
516.23	831.00
516.36	862.00
516.49	836.00
516.62	814.00
516.75	857.00
516.87	872.00
517.00	790.00
517.13	844.00
517.26	849.00
517.39	831.00
517.51	756.00
517.64	807.00
517.77	871.00
517.90	774.00
518.02	816.00
518.15	770.00
518.28	731.00
518.41	792.00
518.54	802.00
518.66	822.00
518.79	776.00
518.92	785.00
519.05	790.00
519.18	803.00
519.30	846.00
519.43	770.00
519.56	788.00
519.69	785.00
519.81	849.00
519.94	793.00
520.07	748.00
520.20	767.00
520.33	805.00
520.45	854.00
520.58	820.00
520.71	834.00
520.84	860.00
520.96	822.00
521.09	812.00
521.22	791.00
521.35	846.00
521.48	840.00
521.60	779.00
521.73	803.00
521.86	848.00
521.99	871.00
522.11	808.00
522.24	820.00
522.37	837.00
522.50	816.00
522.62	852.00
522.75	757.00
522.88	805.00
523.01	789.00
523.14	834.00
523.26	820.00
523.39	877.00
523.52	801.00
523.65	891.00
523.77	843.00
523.90	796.00
524.03	778.00
524.16	789.00
524.28	796.00
524.41	789.00
524.54	798.00
524.67	756.00
524.79	783.00
524.92	844.00
525.05	874.00
525.18	764.00
525.31	841.00
525.43	773.00
525.56	920.00
525.69	792.00
525.82	737.00
525.94	838.00
526.07	839.00
526.20	830.00
526.33	852.00
526.45	916.00
526.58	905.00
526.71	827.00
526.84	798.00
526.96	815.00
527.09	769.00
527.22	788.00
527.35	792.00
527.47	760.00
527.60	876.00
527.73	763.00
527.86	842.00
527.98	816.00
528.11	819.00
528.24	775.00
528.37	798.00
528.49	772.00
528.62	810.00
528.75	844.00
528.88	784.00
529.00	825.00
529.13	859.00
529.26	801.00
529.39	837.00
529.51	922.00
529.64	907.00
529.77	782.00
529.90	796.00
530.02	806.00
530.15	773.00
530.28	758.00
530.40	771.00
530.53	790.00
530.66	832.00
530.79	792.00
530.91	791.00
531.04	794.00
531.17	796.00
531.30	801.00
531.42	807.00
531.55	811.00
531.68	853.00
531.81	775.00
531.93	806.00
532.06	812.00
532.19	769.00
532.31	789.00
532.44	802.00
532.57	835.00
532.70	779.00
532.82	816.00
532.95	838.00
533.08	871.00
533.21	830.00
533.33	775.00
533.46	779.00
533.59	783.00
533.71	902.00
533.84	803.00
533.97	785.00
534.10	787.00
534.22	779.00
534.35	797.00
534.48	812.00
534.61	828.00
534.73	752.00
534.86	784.00
534.99	817.00
535.11	856.00
535.24	817.00
535.37	784.00
535.50	769.00
535.62	777.00
535.75	865.00
535.88	805.00
536.00	782.00
536.13	797.00
536.26	788.00
536.39	789.00
536.51	749.00
536.64	813.00
536.77	809.00
536.89	799.00
537.02	808.00
537.15	837.00
537.28	794.00
537.40	817.00
537.53	802.00
537.66	854.00
537.78	815.00
537.91	771.00
538.04	783.00
538.17	837.00
538.29	817.00
538.42	878.00
538.55	846.00
538.67	830.00
538.80	766.00
538.93	794.00
539.05	808.00
539.18	867.00
539.31	833.00
539.44	814.00
539.56	741.00
539.69	793.00
539.82	787.00
539.94	766.00
540.07	770.00
540.20	849.00
540.32	770.00
540.45	782.00
540.58	778.00
540.71	846.00
540.83	753.00
540.96	779.00
541.09	806.00
541.21	873.00
541.34	861.00
541.47	780.00
541.59	826.00
541.72	878.00
541.85	934.00
541.98	849.00
542.10	793.00
542.23	813.00
542.36	917.00
542.48	798.00
542.61	807.00
542.74	770.00
542.86	782.00
542.99	798.00
543.12	779.00
543.24	805.00
543.37	738.00
543.50	812.00
543.62	791.00
543.75	794.00
543.88	799.00
544.01	802.00
544.13	837.00
544.26	827.00
544.39	786.00
544.51	785.00
544.64	747.00
544.77	818.00
544.89	784.00
545.02	814.00
545.15	780.00
545.27	853.00
545.40	860.00
545.53	837.00
545.65	818.00
545.78	739.00
545.91	761.00
546.03	781.00
546.16	793.00
546.29	790.00
546.41	746.00
546.54	782.00
546.67	772.00
546.79	830.00
546.92	867.00
547.05	762.00
547.17	806.00
547.30	771.00
547.43	831.00
547.56	767.00
547.68	791.00
547.81	749.00
547.94	802.00
548.06	788.00
548.19	773.00
548.32	859.00
548.44	807.00
548.57	823.00
548.70	855.00
548.82	848.00
548.95	841.00
549.08	804.00
549.20	772.00
549.33	872.00
549.45	803.00
549.58	788.00
549.71	747.00
549.83	838.00
549.96	750.00
550.09	794.00
550.21	794.00
550.34	813.00
550.47	820.00
550.59	790.00
550.72	744.00
550.85	796.00
550.97	857.00
551.10	792.00
551.23	780.00
551.35	862.00
551.48	822.00
551.61	787.00
551.73	768.00
551.86	853.00
551.99	881.00
552.11	815.00
552.24	836.00
552.37	805.00
552.49	770.00
552.62	787.00
552.75	833.00
552.87	785.00
553.00	778.00
553.12	826.00
553.25	789.00
553.38	828.00
553.50	849.00
553.63	794.00
553.76	741.00
553.88	794.00
554.01	788.00
554.14	779.00
554.26	840.00
554.39	880.00
554.52	794.00
554.64	805.00
554.77	776.00
554.89	851.00
555.02	851.00
555.15	816.00
555.27	797.00
555.40	800.00
555.53	848.00
555.65	803.00
555.78	759.00
555.91	820.00
556.03	859.00
556.16	780.00
556.29	803.00
556.41	857.00
556.54	858.00
556.66	804.00
556.79	788.00
556.92	805.00
557.04	813.00
557.17	799.00
557.30	784.00
557.42	792.00
557.55	812.00
557.67	834.00
557.80	814.00
557.93	812.00
558.05	815.00
558.18	763.00
558.31	809.00
558.43	834.00
558.56	813.00
558.68	790.00
558.81	771.00
558.94	798.00
559.06	915.00
559.19	784.00
559.32	792.00
559.44	762.00
559.57	806.00
559.69	750.00
559.82	747.00
559.95	783.00
560.07	796.00
560.20	722.00
560.33	804.00
560.45	802.00
560.58	746.00
560.70	793.00
560.83	767.00
560.96	775.00
561.08	794.00
561.21	811.00
561.33	758.00
561.46	756.00
561.59	828.00
561.71	800.00
561.84	809.00
561.97	770.00
562.09	825.00
562.22	765.00
562.34	764.00
562.47	821.00
562.60	809.00
562.72	796.00
562.85	806.00
562.97	785.00
563.10	780.00
563.23	770.00
563.35	746.00
563.48	796.00
563.60	788.00
563.73	817.00
563.86	745.00
563.98	769.00
564.11	779.00
564.23	788.00
564.36	845.00
564.49	785.00
564.61	860.00
564.74	798.00
564.86	760.00
564.99	824.00
565.12	823.00
565.24	845.00
565.37	837.00
565.49	826.00
565.62	853.00
565.75	828.00
565.87	773.00
566.00	934.00
566.12	859.00
566.25	805.00
566.38	835.00
566.50	796.00
566.63	839.00
566.75	785.00
566.88	761.00
567.01	765.00
567.13	778.00
567.26	781.00
567.38	780.00
567.51	850.00
567.64	772.00
567.76	820.00
567.89	824.00
568.01	756.00
568.14	753.00
568.26	811.00
568.39	808.00
568.52	791.00
568.64	818.00
568.77	783.00
568.89	776.00
569.02	763.00
569.15	788.00
569.27	783.00
569.40	810.00
569.52	835.00
569.65	778.00
569.77	792.00
569.90	745.00
570.03	743.00
570.15	862.00
570.28	782.00
570.40	791.00
570.53	778.00
570.66	850.00
570.78	829.00
570.91	805.00
571.03	752.00
571.16	781.00
571.28	756.00
571.41	744.00
571.54	753.00
571.66	730.00
571.79	760.00
571.91	772.00
572.04	746.00
572.16	796.00
572.29	807.00
572.42	769.00
572.54	817.00
572.67	770.00
572.79	798.00
572.92	791.00
573.04	828.00
573.17	846.00
573.29	814.00
573.42	763.00
573.55	824.00
573.67	807.00
573.80	788.00
573.92	767.00
574.05	801.00
574.17	832.00
574.30	785.00
574.43	786.00
574.55	772.00
574.68	808.00
574.80	775.00
574.93	776.00
575.05	743.00
575.18	771.00
575.30	783.00
575.43	819.00
575.56	848.00
575.68	797.00
575.81	783.00
575.93	764.00
576.06	821.00
576.18	821.00
576.31	782.00
576.43	776.00
576.56	876.00
576.69	836.00
576.81	802.00
576.94	790.00
577.06	803.00
577.19	817.00
577.31	803.00
577.44	803.00
577.56	834.00
577.69	798.00
577.82	803.00
577.94	764.00
578.07	742.00
578.19	810.00
578.32	816.00
578.44	782.00
578.57	780.00
578.69	837.00
578.82	795.00
578.94	832.00
579.07	836.00
579.19	833.00
579.32	821.00
579.45	823.00
579.57	799.00
579.70	757.00
579.82	803.00
579.95	771.00
580.07	870.00
580.20	779.00
580.32	796.00
580.45	821.00
580.57	834.00
580.70	829.00
580.82	817.00
580.95	826.00
581.08	757.00
581.20	836.00
581.33	787.00
581.45	795.00
581.58	803.00
581.70	819.00
581.83	720.00
581.95	805.00
582.08	827.00
582.20	785.00
582.33	811.00
582.45	767.00
582.58	775.00
582.70	802.00
582.83	764.00
582.95	805.00
583.08	829.00
583.21	848.00
583.33	808.00
583.46	775.00
583.58	759.00
583.71	824.00
583.83	826.00
583.96	818.00
584.08	826.00
584.21	825.00
584.33	820.00
584.46	794.00
584.58	757.00
584.71	838.00
584.83	838.00
584.96	811.00
585.08	783.00
585.21	886.00
585.33	861.00
585.46	837.00
585.58	836.00
585.71	770.00
585.83	800.00
585.96	833.00
586.08	800.00
586.21	802.00
586.33	839.00
586.46	764.00
586.59	826.00
586.71	777.00
586.84	813.00
586.96	816.00
587.09	733.00
587.21	780.00
587.34	845.00
587.46	800.00
587.59	749.00
587.71	780.00
587.84	793.00
587.96	756.00
588.09	745.00
588.21	819.00
588.34	797.00
588.46	825.00
588.59	772.00
588.71	807.00
588.84	817.00
588.96	794.00
589.09	885.00
589.21	793.00
589.34	768.00
589.46	803.00
589.59	805.00
589.71	846.00
589.84	763.00
589.96	769.00
590.09	793.00
590.21	831.00
590.34	805.00
590.46	806.00
590.59	775.00
590.71	784.00
590.84	830.00
590.96	770.00
591.09	792.00
591.21	780.00
591.34	770.00
591.46	783.00
591.59	837.00
591.71	830.00
591.83	774.00
591.96	756.00
592.08	792.00
592.21	836.00
592.33	806.00
592.46	797.00
592.58	811.00
592.71	837.00
592.83	889.00
592.96	845.00
593.08	850.00
593.21	763.00
593.33	752.00
593.46	794.00
593.58	803.00
593.71	830.00
593.83	830.00
593.96	778.00
594.08	903.00
594.21	803.00
594.33	776.00
594.46	756.00
594.58	735.00
594.71	734.00
594.83	798.00
594.96	801.00
595.08	954.00
595.20	826.00
595.33	809.00
595.45	766.00
595.58	884.00
595.70	811.00
595.83	795.00
595.95	808.00
596.08	803.00
596.20	751.00
596.33	740.00
596.45	799.00
596.58	766.00
596.70	755.00
596.83	791.00
596.95	791.00
597.08	801.00
597.20	767.00
597.32	777.00
597.45	811.00
597.57	786.00
597.70	827.00
597.82	776.00
597.95	799.00
598.07	796.00
598.20	816.00
598.32	799.00
598.45	782.00
598.57	841.00
598.70	844.00
598.82	790.00
598.94	783.00
599.07	828.00
599.19	783.00
599.32	788.00
599.44	707.00
599.57	816.00
599.69	817.00
599.82	786.00
599.94	764.00
600.07	847.00
600.19	817.00
600.31	778.00
600.44	825.00
600.56	889.00
600.69	867.00
600.81	776.00
600.94	779.00
601.06	798.00
601.19	819.00
601.31	848.00
601.44	761.00
601.56	843.00
601.68	822.00
601.81	812.00
601.93	814.00
602.06	822.00
602.18	753.00
602.31	786.00
602.43	856.00
602.56	838.00
602.68	785.00
602.80	787.00
602.93	797.00
603.05	761.00
603.18	785.00
603.30	750.00
603.43	758.00
603.55	778.00
603.68	825.00
603.80	810.00
603.92	801.00
604.05	776.00
604.17	771.00
604.30	758.00
604.42	790.00
604.55	792.00
604.67	828.00
604.79	780.00
604.92	773.00
605.04	775.00
605.17	774.00
605.29	777.00
605.42	774.00
605.54	877.00
605.66	793.00
605.79	805.00
605.91	797.00
606.04	791.00
606.16	782.00
606.29	799.00
606.41	761.00
606.53	811.00
606.66	744.00
606.78	788.00
606.91	786.00
607.03	775.00
607.16	771.00
607.28	753.00
607.40	804.00
607.53	817.00
607.65	761.00
607.78	760.00
607.90	788.00
608.03	898.00
608.15	792.00
608.27	818.00
608.40	759.00
608.52	824.00
608.65	790.00
608.77	837.00
608.89	784.00
609.02	854.00
609.14	861.00
609.27	808.00
609.39	841.00
609.52	770.00
609.64	737.00
609.76	788.00
609.89	799.00
610.01	845.00
610.14	809.00
610.26	777.00
610.38	758.00
610.51	842.00
610.63	784.00
610.76	760.00
610.88	832.00
611.01	842.00
611.13	873.00
611.25	836.00
611.38	776.00
611.50	788.00
611.63	819.00
611.75	811.00
611.87	813.00
612.00	775.00
612.12	840.00
612.25	779.00
612.37	768.00
612.49	853.00
612.62	839.00
612.74	866.00
612.87	805.00
612.99	780.00
613.11	746.00
613.24	782.00
613.36	779.00
613.49	794.00
613.61	789.00
613.73	783.00
613.86	839.00
613.98	775.00
614.11	828.00
614.23	829.00
614.35	851.00
614.48	828.00
614.60	806.00
614.72	778.00
614.85	818.00
614.97	794.00
615.10	789.00
615.22	785.00
615.34	811.00
615.47	853.00
615.59	779.00
615.72	800.00
615.84	823.00
615.96	770.00
616.09	875.00
616.21	781.00
616.34	778.00
616.46	788.00
616.58	808.00
616.71	796.00
616.83	844.00
616.95	824.00
617.08	818.00
617.20	793.00
617.33	767.00
617.45	790.00
617.57	809.00
617.70	812.00
617.82	786.00
617.95	797.00
618.07	866.00
618.19	818.00
618.32	829.00
618.44	784.00
618.56	758.00
618.69	728.00
618.81	750.00
618.94	827.00
619.06	784.00
619.18	784.00
619.31	756.00
619.43	756.00
619.55	816.00
619.68	810.00
619.80	768.00
619.92	829.00
620.05	923.00
620.17	862.00
620.30	804.00
620.42	800.00
620.54	833.00
620.67	781.00
620.79	810.00
620.91	809.00
621.04	863.00
621.16	801.00
621.29	776.00
621.41	750.00
621.53	777.00
621.66	786.00
621.78	756.00
621.90	840.00
622.03	885.00
622.15	808.00
622.27	797.00
622.40	798.00
622.52	790.00
622.64	776.00
622.77	746.00
622.89	812.00
623.02	833.00
623.14	813.00
623.26	833.00
623.39	804.00
623.51	847.00
623.63	786.00
623.76	774.00
623.88	861.00
624.00	799.00
624.13	768.00
624.25	766.00
624.37	743.00
624.50	841.00
624.62	823.00
624.75	762.00
624.87	761.00
624.99	816.00
625.12	774.00
625.24	793.00
625.36	864.00
625.49	828.00
625.61	816.00
625.73	797.00
625.86	836.00
625.98	793.00
626.10	769.00
626.23	760.00
626.35	810.00
626.47	777.00
626.60	757.00
626.72	769.00
626.84	765.00
626.97	801.00
627.09	781.00
627.21	790.00
627.34	908.00
627.46	892.00
627.58	794.00
627.71	807.00
627.83	828.00
627.95	770.00
628.08	805.00
628.20	838.00
628.32	746.00
628.45	726.00
628.57	742.00
628.69	763.00
628.82	798.00
628.94	835.00
629.06	804.00
629.19	766.00
629.31	829.00
629.43	772.00
629.56	808.00
629.68	804.00
629.80	836.00
629.93	769.00
630.05	778.00
630.17	749.00
630.30	775.00
630.42	770.00
630.54	821.00
630.67	792.00
630.79	771.00
630.91	902.00
631.04	821.00
631.16	816.00
631.28	796.00
631.41	771.00
631.53	746.00
631.65	799.00
631.78	811.00
631.90	790.00
632.02	796.00
632.14	707.00
632.27	841.00
632.39	803.00
632.51	784.00
632.64	848.00
632.76	803.00
632.88	784.00
633.01	792.00
633.13	787.00
633.25	807.00
633.38	888.00
633.50	760.00
633.62	756.00
633.75	735.00
633.87	732.00
633.99	797.00
634.11	762.00
634.24	776.00
634.36	784.00
634.48	790.00
634.61	782.00
634.73	826.00
634.85	781.00
634.98	753.00
635.10	778.00
635.22	794.00
635.35	907.00
635.47	801.00
635.59	765.00
635.71	811.00
635.84	840.00
635.96	784.00
636.08	813.00
636.21	774.00
636.33	805.00
636.45	795.00
636.58	762.00
636.70	736.00
636.82	818.00
636.94	764.00
637.07	736.00
637.19	822.00
637.31	823.00
637.44	832.00
637.56	740.00
637.68	800.00
637.81	802.00
637.93	798.00
638.05	757.00
638.17	845.00
638.30	918.00
638.42	786.00
638.54	753.00
638.67	778.00
638.79	789.00
638.91	769.00
639.03	777.00
639.16	790.00
639.28	797.00
639.40	801.00
639.53	765.00
639.65	796.00
639.77	780.00
639.89	795.00
640.02	792.00
640.14	791.00
640.26	757.00
640.39	796.00
640.51	762.00
640.63	813.00
640.75	838.00
640.88	784.00
641.00	771.00
641.12	763.00
641.24	848.00
641.37	764.00
641.49	754.00
641.61	892.00
641.74	772.00
641.86	807.00
641.98	782.00
642.10	802.00
642.23	806.00
642.35	774.00
642.47	808.00
642.60	807.00
642.72	821.00
642.84	733.00
642.96	749.00
643.09	756.00
643.21	763.00
643.33	778.00
643.45	773.00
643.58	828.00
643.70	857.00
643.82	774.00
643.94	775.00
644.07	785.00
644.19	802.00
644.31	808.00
644.44	794.00
644.56	771.00
644.68	766.00
644.80	757.00
644.93	748.00
645.05	761.00
645.17	807.00
645.29	785.00
645.42	791.00
645.54	778.00
645.66	812.00
645.78	782.00
645.91	761.00
646.03	812.00
646.15	859.00
646.27	774.00
646.40	810.00
646.52	815.00
646.64	835.00
646.76	791.00
646.89	738.00
647.01	816.00
647.13	798.00
647.25	823.00
647.38	772.00
647.50	745.00
647.62	791.00
647.74	743.00
647.87	766.00
647.99	797.00
648.11	826.00
648.23	785.00
648.36	738.00
648.48	839.00
648.60	803.00
648.72	760.00
648.85	750.00
648.97	819.00
649.09	800.00
649.21	769.00
649.34	811.00
649.46	793.00
649.58	794.00
649.70	815.00
649.83	769.00
649.95	806.00
650.07	801.00
650.19	813.00
650.32	785.00
650.44	838.00
650.56	806.00
650.68	774.00
650.81	772.00
650.93	758.00
651.05	846.00
651.17	769.00
651.29	810.00
651.42	786.00
651.54	808.00
651.66	755.00
651.78	760.00
651.91	798.00
652.03	907.00
652.15	818.00
652.27	773.00
652.40	799.00
652.52	794.00
652.64	785.00
652.76	751.00
652.88	878.00
653.01	788.00
653.13	755.00
653.25	732.00
653.37	812.00
653.50	787.00
653.62	801.00
653.74	742.00
653.86	804.00
653.98	816.00
654.11	764.00
654.23	781.00
654.35	776.00
654.47	886.00
654.60	771.00
654.72	776.00
654.84	753.00
654.96	812.00
655.08	790.00
655.21	824.00
655.33	779.00
655.45	838.00
655.57	790.00
655.70	800.00
655.82	841.00
655.94	855.00
656.06	818.00
656.18	758.00
656.31	846.00
656.43	816.00
656.55	755.00
656.67	768.00
656.79	779.00
656.92	865.00
657.04	822.00
657.16	776.00
657.28	895.00
657.40	807.00
657.53	828.00
657.65	795.00
657.77	844.00
657.89	834.00
658.01	791.00
658.14	756.00
658.26	810.00
658.38	775.00
658.50	743.00
658.62	751.00
658.75	899.00
658.87	840.00
658.99	815.00
659.11	752.00
659.23	817.00
659.36	892.00
659.48	842.00
659.60	820.00
659.72	808.00
659.84	796.00
659.97	814.00
660.09	819.00
660.21	890.00
660.33	857.00
660.45	744.00
660.58	714.00
660.70	764.00
660.82	780.00
660.94	746.00
661.06	780.00
661.19	848.00
661.31	827.00
661.43	787.00
661.55	796.00
661.67	828.00
661.80	852.00
661.92	794.00
662.04	789.00
662.16	784.00
662.28	834.00
662.40	792.00
662.53	818.00
662.65	820.00
662.77	755.00
662.89	788.00
663.01	774.00
663.14	798.00
663.26	822.00
663.38	787.00
663.50	757.00
663.62	753.00
663.74	776.00
663.87	797.00
663.99	782.00
664.11	809.00
664.23	896.00
664.35	788.00
664.48	765.00
664.60	780.00
664.72	768.00
664.84	741.00
664.96	788.00
665.08	842.00
665.21	801.00
665.33	830.00
665.45	738.00
665.57	788.00
665.69	866.00
665.81	787.00
665.94	748.00
666.06	757.00
666.18	806.00
666.30	781.00
666.42	755.00
666.54	793.00
666.67	814.00
666.79	765.00
666.91	830.00
667.03	782.00
667.15	751.00
667.27	775.00
667.40	754.00
667.52	770.00
667.64	823.00
667.76	765.00
667.88	758.00
668.00	819.00
668.13	841.00
668.25	765.00
668.37	758.00
668.49	771.00
668.61	842.00
668.73	797.00
668.85	790.00
668.98	813.00
669.10	791.00
669.22	778.00
669.34	794.00
669.46	845.00
669.58	775.00
669.71	784.00
669.83	783.00
669.95	789.00
670.07	800.00
670.19	790.00
670.31	781.00
670.43	774.00
670.56	816.00
670.68	845.00
670.80	820.00
670.92	793.00
671.04	846.00
671.16	765.00
671.28	753.00
671.41	776.00
671.53	822.00
671.65	779.00
671.77	787.00
671.89	926.00
672.01	874.00
672.13	825.00
672.26	748.00
672.38	794.00
672.50	763.00
672.62	792.00
672.74	813.00
672.86	779.00
672.98	799.00
673.11	807.00
673.23	788.00
673.35	846.00
673.47	787.00
673.59	789.00
673.71	778.00
673.83	801.00
673.96	892.00
674.08	789.00
674.20	741.00
674.32	780.00
674.44	770.00
674.56	797.00
674.68	805.00
674.80	825.00
674.93	781.00
675.05	766.00
675.17	796.00
675.29	834.00
675.41	833.00
675.53	801.00
675.65	782.00
675.77	769.00
675.90	852.00
676.02	770.00
676.14	759.00
676.26	862.00
676.38	873.00
676.50	805.00
676.62	826.00
676.74	759.00
676.87	798.00
676.99	809.00
677.11	835.00
677.23	804.00
677.35	807.00
677.47	741.00
677.59	767.00
677.71	802.00
677.83	809.00
677.96	791.00
678.08	792.00
678.20	768.00
678.32	755.00
678.44	790.00
678.56	800.00
678.68	933.00
678.80	828.00
678.93	789.00
679.05	793.00
679.17	773.00
679.29	829.00
679.41	811.00
679.53	761.00
679.65	755.00
679.77	790.00
679.89	782.00
680.01	814.00
680.14	833.00
680.26	741.00
680.38	774.00
680.50	805.00
680.62	849.00
680.74	792.00
680.86	770.00
680.98	788.00
681.10	789.00
681.22	874.00
681.35	772.00
681.47	784.00
681.59	758.00
681.71	864.00
681.83	790.00
681.95	775.00
682.07	865.00
682.19	795.00
682.31	780.00
682.43	738.00
682.56	813.00
682.68	740.00
682.80	758.00
682.92	803.00
683.04	793.00
683.16	776.00
683.28	755.00
683.40	813.00
683.52	790.00
683.64	794.00
683.76	767.00
683.89	779.00
684.01	781.00
684.13	844.00
684.25	799.00
684.37	792.00
684.49	839.00
684.61	799.00
684.73	802.00
684.85	782.00
684.97	755.00
685.09	851.00
685.21	771.00
685.34	779.00
685.46	907.00
685.58	792.00
685.70	802.00
685.82	830.00
685.94	762.00
686.06	768.00
686.18	765.00
686.30	778.00
686.42	762.00
686.54	829.00
686.66	762.00
686.79	851.00
686.91	805.00
687.03	886.00
687.15	835.00
687.27	791.00
687.39	783.00
687.51	856.00
687.63	802.00
687.75	849.00
687.87	809.00
687.99	868.00
688.11	761.00
688.23	815.00
688.35	849.00
688.48	828.00
688.60	774.00
688.72	775.00
688.84	790.00
688.96	837.00
689.08	789.00
689.20	787.00
689.32	906.00
689.44	808.00
689.56	761.00
689.68	772.00
689.80	790.00
689.92	767.00
690.04	764.00
690.16	818.00
690.28	811.00
690.41	808.00
690.53	772.00
690.65	833.00
690.77	841.00
690.89	841.00
691.01	806.00
691.13	765.00
691.25	742.00
691.37	782.00
691.49	747.00
691.61	748.00
691.73	857.00
691.85	799.00
691.97	779.00
692.09	766.00
692.21	848.00
692.33	855.00
692.45	812.00
692.57	765.00
692.70	792.00
692.82	806.00
692.94	743.00
693.06	757.00
693.18	799.00
693.30	798.00
693.42	774.00
693.54	816.00
693.66	825.00
693.78	810.00
693.90	780.00
694.02	787.00
694.14	810.00
694.26	778.00
694.38	803.00
694.50	803.00
694.62	818.00
694.74	755.00
694.86	763.00
694.98	798.00
695.10	809.00
695.22	834.00
695.34	768.00
695.46	771.00
695.58	771.00
695.71	810.00
695.83	762.00
695.95	763.00
696.07	845.00
696.19	765.00
696.31	785.00
696.43	754.00
696.55	860.00
696.67	791.00
696.79	781.00
696.91	795.00
697.03	786.00
697.15	854.00
697.27	801.00
697.39	782.00
697.51	816.00
697.63	774.00
697.75	775.00
697.87	790.00
697.99	738.00
698.11	716.00
698.23	753.00
698.35	767.00
698.47	769.00
698.59	794.00
698.71	775.00
698.83	835.00
698.95	766.00
699.07	816.00
699.19	781.00
699.31	774.00
699.43	778.00
699.55	814.00
699.67	793.00
699.79	791.00
699.91	764.00
700.03	800.00
700.15	807.00
700.27	749.00
700.39	779.00
700.51	751.00
700.63	803.00
700.75	793.00
700.87	797.00
700.99	783.00
701.11	821.00
701.24	788.00
701.36	817.00
701.48	832.00
701.60	832.00
701.72	755.00
701.84	845.00
701.96	801.00
702.08	791.00
702.20	879.00
702.32	808.00
702.44	813.00
702.56	791.00
702.68	792.00
702.80	803.00
702.92	883.00
703.04	864.00
703.16	796.00
703.28	806.00
703.40	794.00
703.52	812.00
703.64	805.00
703.76	814.00
703.88	776.00
704.00	778.00
704.12	780.00
704.24	828.00
704.36	799.00
704.48	811.00
704.60	766.00
704.72	791.00
704.84	788.00
704.96	817.00
705.07	797.00
705.19	752.00
705.31	783.00
705.43	830.00
705.55	775.00
705.67	801.00
705.79	786.00
705.91	733.00
706.03	771.00
706.15	793.00
706.27	786.00
706.39	793.00
706.51	773.00
706.63	764.00
706.75	806.00
706.87	797.00
706.99	861.00
707.11	805.00
707.23	787.00
707.35	811.00
707.47	806.00
707.59	823.00
707.71	837.00
707.83	791.00
707.95	827.00
708.07	786.00
708.19	912.00
708.31	817.00
708.43	768.00
708.55	804.00
708.67	830.00
708.79	795.00
708.91	818.00
709.03	803.00
709.15	838.00
709.27	779.00
709.39	804.00
709.51	780.00
709.63	809.00
709.75	819.00
709.87	764.00
709.99	836.00
710.11	767.00
710.23	762.00
710.35	749.00
710.47	899.00
710.58	845.00
710.70	854.00
710.82	849.00
710.94	797.00
711.06	788.00
711.18	809.00
711.30	771.00
711.42	826.00
711.54	796.00
711.66	822.00
711.78	768.00
711.90	827.00
712.02	870.00
712.14	786.00
712.26	763.00
712.38	833.00
712.50	838.00
712.62	769.00
712.74	778.00
712.86	786.00
712.98	845.00
713.10	765.00
713.22	750.00
713.34	793.00
713.45	770.00
713.57	818.00
713.69	763.00
713.81	778.00
713.93	791.00
714.05	788.00
714.17	767.00
714.29	864.00
714.41	842.00
714.53	789.00
714.65	821.00
714.77	787.00
714.89	772.00
715.01	859.00
715.13	761.00
715.25	790.00
715.37	769.00
715.49	754.00
715.61	813.00
715.72	810.00
715.84	841.00
715.96	782.00
716.08	780.00
716.20	846.00
716.32	828.00
716.44	773.00
716.56	780.00
716.68	812.00
716.80	888.00
716.92	855.00
717.04	813.00
717.16	826.00
717.28	792.00
717.40	796.00
717.52	804.00
717.63	779.00
717.75	795.00
717.87	785.00
717.99	815.00
718.11	782.00
718.23	853.00
718.35	825.00
718.47	804.00
718.59	741.00
718.71	787.00
718.83	782.00
718.95	816.00
719.07	760.00
719.19	782.00
719.30	779.00
719.42	801.00
719.54	796.00
719.66	795.00
719.78	797.00
719.90	728.00
720.02	807.00
720.14	823.00
720.26	836.00
720.38	832.00
720.50	797.00
720.62	750.00
720.74	810.00
720.85	797.00
720.97	855.00
721.09	869.00
721.21	776.00
721.33	861.00
721.45	789.00
721.57	816.00
721.69	770.00
721.81	737.00
721.93	845.00
722.05	810.00
722.16	753.00
722.28	730.00
722.40	773.00
722.52	834.00
722.64	865.00
722.76	766.00
722.88	823.00
723.00	806.00
723.12	768.00
723.24	807.00
723.36	744.00
723.47	837.00
723.59	806.00
723.71	775.00
723.83	806.00
723.95	780.00
724.07	791.00
724.19	810.00
724.31	859.00
724.43	765.00
724.55	729.00
724.66	753.00
724.78	913.00
724.90	773.00
725.02	772.00
725.14	768.00
725.26	787.00
725.38	734.00
725.50	808.00
725.62	788.00
725.74	789.00
725.85	775.00
725.97	796.00
726.09	866.00
726.21	1126.00
726.33	835.00
726.45	790.00
726.57	763.00
726.69	801.00
726.81	801.00
726.92	785.00
727.04	805.00
727.16	833.00
727.28	780.00
727.40	776.00
727.52	805.00
727.64	910.00
727.76	873.00
727.88	817.00
727.99	754.00
728.11	762.00
728.23	785.00
728.35	760.00
728.47	777.00
728.59	788.00
728.71	796.00
728.83	812.00
728.94	822.00
729.06	877.00
729.18	850.00
729.30	818.00
729.42	802.00
729.54	872.00
729.66	876.00
729.78	785.00
729.90	798.00
730.01	770.00
730.13	729.00
730.25	786.00
730.37	787.00
730.49	826.00
730.61	817.00
730.73	795.00
730.84	824.00
730.96	816.00
731.08	790.00
731.20	809.00
731.32	810.00
731.44	947.00
731.56	797.00
731.68	762.00
731.79	805.00
731.91	766.00
732.03	757.00
732.15	789.00
732.27	777.00
732.39	784.00
732.51	831.00
732.62	762.00
732.74	796.00
732.86	848.00
732.98	793.00
733.10	786.00
733.22	801.00
733.34	835.00
733.45	738.00
733.57	800.00
733.69	743.00
733.81	784.00
733.93	803.00
734.05	731.00
734.17	792.00
734.28	802.00
734.40	785.00
734.52	787.00
734.64	779.00
734.76	872.00
734.88	793.00
735.00	745.00
735.11	780.00
735.23	839.00
735.35	788.00
735.47	758.00
735.59	830.00
735.71	795.00
735.83	800.00
735.94	821.00
736.06	826.00
736.18	858.00
736.30	839.00
736.42	814.00
736.54	797.00
736.65	814.00
736.77	940.00
736.89	841.00
737.01	796.00
737.13	897.00
737.25	746.00
737.36	764.00
737.48	805.00
737.60	788.00
737.72	786.00
737.84	805.00
737.96	844.00
738.08	774.00
738.19	878.00
738.31	789.00
738.43	810.00
738.55	790.00
738.67	802.00
738.79	774.00
738.90	802.00
739.02	809.00
739.14	795.00
739.26	798.00
739.38	802.00
739.50	800.00
739.61	785.00
739.73	796.00
739.85	814.00
739.97	831.00
740.09	851.00
740.20	755.00
740.32	808.00
740.44	820.00
740.56	760.00
740.68	802.00
740.80	793.00
740.91	801.00
741.03	832.00
741.15	819.00
741.27	778.00
741.39	836.00
741.51	814.00
741.62	853.00
741.74	790.00
741.86	803.00
741.98	765.00
742.10	810.00
742.21	796.00
742.33	809.00
742.45	764.00
742.57	867.00
742.69	793.00
742.80	833.00
742.92	788.00
743.04	785.00
743.16	776.00
743.28	839.00
743.40	757.00
743.51	771.00
743.63	773.00
743.75	795.00
743.87	800.00
743.99	832.00
744.10	785.00
744.22	792.00
744.34	763.00
744.46	823.00
744.58	825.00
744.69	743.00
744.81	812.00
744.93	740.00
745.05	770.00
745.17	871.00
745.28	863.00
745.40	818.00
745.52	789.00
745.64	805.00
745.76	829.00
745.87	779.00
745.99	762.00
746.11	795.00
746.23	765.00
746.35	810.00
746.46	765.00
746.58	880.00
746.70	817.00
746.82	799.00
746.94	788.00
747.05	761.00
747.17	754.00
747.29	735.00
747.41	801.00
747.53	916.00
747.64	775.00
747.76	849.00
747.88	861.00
748.00	849.00
748.12	815.00
748.23	799.00
748.35	814.00
748.47	845.00
748.59	849.00
748.70	778.00
748.82	751.00
748.94	774.00
749.06	777.00
749.18	776.00
749.29	771.00
749.41	822.00
749.53	797.00
749.65	794.00
749.76	837.00
749.88	801.00
750.00	821.00
750.12	838.00
750.24	816.00
750.35	812.00
750.47	778.00
750.59	833.00
750.71	798.00
750.82	824.00
750.94	754.00
751.06	791.00
751.18	762.00
751.30	831.00
751.41	838.00
751.53	849.00
751.65	789.00
751.77	754.00
751.88	807.00
752.00	839.00
752.12	755.00
752.24	844.00
752.35	828.00
752.47	828.00
752.59	838.00
752.71	889.00
752.83	793.00
752.94	867.00
753.06	776.00
753.18	797.00
753.30	775.00
753.41	733.00
753.53	780.00
753.65	792.00
753.77	845.00
753.88	758.00
754.00	821.00
754.12	798.00
754.24	864.00
754.35	779.00
754.47	752.00
754.59	826.00
754.71	818.00
754.82	801.00
754.94	793.00
755.06	852.00
755.18	819.00
755.29	816.00
755.41	784.00
755.53	827.00
755.65	782.00
755.76	804.00
755.88	804.00
756.00	850.00
756.12	770.00
756.23	702.00
756.35	773.00
756.47	841.00
756.59	782.00
756.70	780.00
756.82	785.00
756.94	784.00
757.06	818.00
757.17	826.00
757.29	800.00
757.41	747.00
757.53	817.00
757.64	809.00
757.76	810.00
757.88	822.00
758.00	827.00
758.11	799.00
758.23	755.00
758.35	820.00
758.47	765.00
758.58	814.00
758.70	753.00
758.82	771.00
758.94	762.00
759.05	810.00
759.17	739.00
759.29	801.00
759.40	853.00
759.52	805.00
759.64	794.00
759.76	807.00
759.87	815.00
759.99	822.00
760.11	787.00
760.23	809.00
760.34	848.00
760.46	824.00
760.58	787.00
760.70	797.00
760.81	849.00
760.93	821.00
761.05	826.00
761.16	810.00
761.28	777.00
761.40	783.00
761.52	770.00
761.63	855.00
761.75	793.00
761.87	770.00
761.98	745.00
762.10	828.00
762.22	802.00
762.34	829.00
762.45	786.00
762.57	821.00
762.69	924.00
762.81	810.00
762.92	830.00
763.04	756.00
763.16	810.00
763.27	822.00
763.39	772.00
763.51	816.00
763.63	820.00
763.74	772.00
763.86	760.00
763.98	787.00
764.09	796.00
764.21	801.00
764.33	775.00
764.44	790.00
764.56	801.00
764.68	780.00
764.80	809.00
764.91	751.00
765.03	840.00
765.15	793.00
765.26	802.00
765.38	773.00
765.50	834.00
765.62	801.00
765.73	813.00
765.85	810.00
765.97	751.00
766.08	814.00
766.20	816.00
766.32	812.00
766.43	837.00
766.55	822.00
766.67	792.00
766.79	791.00
766.90	761.00
767.02	738.00
767.14	761.00
767.25	760.00
767.37	891.00
767.49	814.00
767.60	805.00
767.72	849.00
767.84	826.00
767.95	782.00
768.07	772.00
768.19	832.00
768.31	823.00
768.42	803.00
768.54	798.00
768.66	794.00
768.77	844.00
768.89	808.00
769.01	771.00
769.12	822.00
769.24	804.00
769.36	759.00
769.47	773.00
769.59	756.00
769.71	812.00
769.82	799.00
769.94	793.00
770.06	752.00
770.17	833.00
770.29	817.00
770.41	823.00
770.53	795.00
770.64	763.00
770.76	806.00
770.88	816.00
770.99	828.00
771.11	774.00
771.23	819.00
771.34	779.00
771.46	876.00
771.58	850.00
771.69	817.00
771.81	796.00
771.93	843.00
772.04	775.00
772.16	834.00
772.28	805.00
772.39	858.00
772.51	794.00
772.63	810.00
772.74	788.00
772.86	791.00
772.98	905.00
773.09	765.00
773.21	795.00
773.33	826.00
773.44	812.00
773.56	789.00
773.68	812.00
773.79	848.00
773.91	791.00
774.03	801.00
774.14	791.00
774.26	851.00
774.38	777.00
774.49	756.00
774.61	790.00
774.73	792.00
774.84	794.00
774.96	758.00
775.08	805.00
775.19	830.00
775.31	861.00
775.43	812.00
775.54	784.00
775.66	741.00
775.77	829.00
775.89	773.00
776.01	849.00
776.12	851.00
776.24	813.00
776.36	766.00
776.47	771.00
776.59	807.00
776.71	846.00
776.82	737.00
776.94	747.00
777.06	781.00
777.17	873.00
777.29	756.00
777.41	788.00
777.52	818.00
777.64	804.00
777.75	830.00
777.87	742.00
777.99	777.00
778.10	847.00
778.22	794.00
778.34	812.00
778.45	784.00
778.57	829.00
778.69	844.00
778.80	825.00
778.92	906.00
779.04	818.00
779.15	799.00
779.27	839.00
779.38	807.00
779.50	870.00
779.62	773.00
779.73	801.00
779.85	727.00
779.97	897.00
780.08	800.00
780.20	808.00
780.31	841.00
780.43	822.00
780.55	801.00
780.66	829.00
780.78	815.00
780.90	888.00
781.01	782.00
781.13	807.00
781.25	787.00
781.36	853.00
781.48	790.00
781.59	802.00
781.71	839.00
781.83	837.00
781.94	771.00
782.06	770.00
782.18	837.00
782.29	791.00
782.41	761.00
782.52	848.00
782.64	855.00
782.76	807.00
782.87	826.00
782.99	824.00
783.10	947.00
783.22	926.00
783.34	808.00
783.45	810.00
783.57	792.00
783.69	774.00
783.80	812.00
783.92	850.00
784.03	787.00
784.15	801.00
784.27	811.00
784.38	803.00
784.50	834.00
784.61	814.00
784.73	788.00
784.85	780.00
784.96	793.00
785.08	850.00
785.19	844.00
785.31	794.00
785.43	788.00
785.54	779.00
785.66	837.00
785.77	825.00
785.89	836.00
786.01	762.00
786.12	796.00
786.24	821.00
786.35	861.00
786.47	820.00
786.59	795.00
786.70	762.00
786.82	833.00
786.93	844.00
787.05	810.00
787.17	832.00
787.28	793.00
787.40	791.00
787.51	830.00
787.63	816.00
787.75	767.00
787.86	819.00
787.98	846.00
788.09	814.00
788.21	812.00
788.33	834.00
788.44	825.00
788.56	788.00
788.67	834.00
788.79	801.00
788.91	813.00
789.02	782.00
789.14	781.00
789.25	869.00
789.37	832.00
789.48	785.00
789.60	806.00
789.72	779.00
789.83	827.00
789.95	808.00
790.06	759.00
790.18	759.00
790.30	835.00
790.41	835.00
790.53	800.00
790.64	771.00
790.76	778.00
790.87	807.00
790.99	799.00
791.11	813.00
791.22	785.00
791.34	808.00
791.45	839.00
791.57	826.00
791.68	791.00
791.80	781.00
791.92	832.00
792.03	789.00
792.15	749.00
792.26	788.00
792.38	768.00
792.49	839.00
792.61	798.00
792.73	800.00
792.84	806.00
792.96	888.00
793.07	788.00
793.19	1546.00
793.30	868.00
793.42	846.00
793.54	718.00
793.65	760.00
793.77	914.00
793.88	794.00
794.00	767.00
794.11	790.00
794.23	737.00
794.34	801.00
794.46	752.00
794.58	755.00
794.69	882.00
794.81	885.00
794.92	769.00
795.04	759.00
795.15	861.00
795.27	851.00
795.39	797.00
795.50	772.00
795.62	782.00
795.73	781.00
795.85	768.00
795.96	814.00
796.08	844.00
796.19	793.00
796.31	774.00
796.42	759.00
796.54	771.00
796.66	834.00
796.77	763.00
796.89	752.00
797.00	852.00
797.12	743.00
797.23	791.00
797.35	813.00
797.46	829.00
797.58	846.00
797.69	802.00
797.81	797.00
797.93	804.00
798.04	770.00
798.16	781.00
798.27	805.00
798.39	754.00
798.50	753.00
798.62	762.00
798.73	753.00
798.85	878.00
798.96	808.00
799.08	821.00
799.19	830.00
799.31	818.00
799.43	809.00
799.54	785.00
799.66	812.00
799.77	827.00
799.89	779.00
800.00	747.00
800.12	795.00
800.23	854.00
800.35	854.00
800.46	728.00
800.58	742.00
800.69	805.00
800.81	782.00
800.92	750.00
801.04	803.00
801.16	742.00
801.27	753.00
801.39	770.00
801.50	784.00
801.62	790.00
801.73	855.00
801.85	846.00
801.96	766.00
802.08	852.00
802.19	845.00
802.31	784.00
802.42	794.00
802.54	864.00
802.65	849.00
802.77	770.00
802.88	833.00
803.00	753.00
803.11	891.00
803.23	809.00
803.34	799.00
803.46	817.00
803.57	756.00
803.69	825.00
803.80	761.00
803.92	848.00
804.03	791.00
804.15	809.00
804.26	823.00
804.38	832.00
804.50	772.00
804.61	817.00
804.73	805.00
804.84	804.00
804.96	747.00
805.07	797.00
805.19	760.00
805.30	810.00
805.42	843.00
805.53	793.00
805.65	776.00
805.76	741.00
805.88	788.00
805.99	811.00
806.11	842.00
806.22	771.00
806.34	795.00
806.45	798.00
806.57	772.00
806.68	823.00
806.80	732.00
806.91	758.00
807.03	736.00
807.14	730.00
807.26	746.00
807.37	756.00
807.49	809.00
807.60	776.00
807.72	844.00
807.83	875.00
807.95	799.00
808.06	811.00
808.17	809.00
808.29	829.00
808.40	780.00
808.52	789.00
808.63	788.00
808.75	807.00
808.86	798.00
808.98	798.00
809.09	760.00
809.21	822.00
809.32	780.00
809.44	804.00
809.55	758.00
809.67	816.00
809.78	777.00
809.90	836.00
810.01	849.00
810.13	766.00
810.24	834.00
810.36	740.00
810.47	764.00
810.59	781.00
810.70	845.00
810.82	845.00
810.93	771.00
811.05	781.00
811.16	785.00
811.27	765.00
811.39	791.00
811.50	841.00
811.62	737.00
811.73	742.00
811.85	817.00
811.96	807.00
812.08	832.00
812.19	799.00
812.31	813.00
812.42	782.00
812.54	778.00
812.65	853.00
812.77	840.00
812.88	841.00
813.00	828.00
813.11	821.00
813.22	752.00
813.34	782.00
813.45	790.00
813.57	894.00
813.68	877.00
813.80	803.00
813.91	760.00
814.03	802.00
814.14	868.00
814.26	779.00
814.37	801.00
814.49	795.00
814.60	772.00
814.71	777.00
814.83	799.00
814.94	754.00
815.06	796.00
815.17	805.00
815.29	803.00
815.40	762.00
815.52	869.00
815.63	795.00
815.75	793.00
815.86	819.00
815.97	764.00
816.09	804.00
816.20	829.00
816.32	819.00
816.43	752.00
816.55	798.00
816.66	772.00
816.78	888.00
816.89	799.00
817.00	810.00
817.12	778.00
817.23	784.00
817.35	850.00
817.46	821.00
817.58	766.00
817.69	922.00
817.81	818.00
817.92	827.00
818.03	805.00
818.15	816.00
818.26	775.00
818.38	764.00
818.49	787.00
818.61	816.00
818.72	770.00
818.83	1811.00
818.95	932.00
819.06	771.00
819.18	781.00
819.29	818.00
819.41	804.00
819.52	818.00
819.64	812.00
819.75	769.00
819.86	762.00
819.98	803.00
820.09	833.00
820.21	806.00
820.32	767.00
820.44	812.00
820.55	881.00
820.66	776.00
820.78	821.00
820.89	797.00
821.01	829.00
821.12	808.00
821.23	828.00
821.35	782.00
821.46	839.00
821.58	816.00
821.69	804.00
821.81	782.00
821.92	848.00
822.03	794.00
822.15	816.00
822.26	756.00
822.38	764.00
822.49	812.00
822.61	817.00
822.72	825.00
822.83	848.00
822.95	789.00
823.06	807.00
823.18	849.00
823.29	877.00
823.40	847.00
823.52	817.00
823.63	767.00
823.75	893.00
823.86	813.00
823.97	759.00
824.09	841.00
824.20	773.00
824.32	811.00
824.43	801.00
824.55	852.00
824.66	909.00
824.77	788.00
824.89	820.00
825.00	862.00
825.12	805.00
825.23	840.00
825.34	779.00
825.46	763.00
825.57	834.00
825.69	788.00
825.80	730.00
825.91	767.00
826.03	755.00
826.14	814.00
826.26	778.00
826.37	794.00
826.48	791.00
826.60	821.00
826.71	784.00
826.83	805.00
826.94	813.00
827.05	850.00
827.17	849.00
827.28	801.00
827.39	797.00
827.51	780.00
827.62	799.00
827.74	814.00
827.85	797.00
827.96	768.00
828.08	810.00
828.19	889.00
828.31	790.00
828.42	738.00
828.53	823.00
828.65	849.00
828.76	868.00
828.87	833.00
828.99	779.00
