Wavelength (nm)	Intensity
377.35	810.67
377.48	584.00
377.62	602.00
377.75	606.33
377.88	808.00
378.02	793.33
378.15	793.33
378.28	778.67
378.41	832.67
378.55	801.67
378.68	798.00
378.81	771.00
378.95	796.67
379.08	783.00
379.21	761.00
379.35	820.33
379.48	816.00
379.61	861.67
379.74	795.33
379.88	779.00
380.01	847.33
380.14	904.00
380.28	839.00
380.41	764.00
380.54	813.33
380.68	827.00
380.81	739.33
380.94	830.00
381.07	866.67
381.21	866.33
381.34	792.67
381.47	737.33
381.61	925.00
381.74	803.67
381.87	762.67
382.00	824.00
382.14	882.33
382.27	839.67
382.40	774.33
382.54	859.33
382.67	862.00
382.80	765.00
382.93	775.33
383.07	811.67
383.20	792.67
383.33	831.00
383.47	780.33
383.60	760.00
383.73	936.00
383.86	822.33
384.00	797.00
384.13	792.33
384.26	836.67
384.40	841.33
384.53	792.00
384.66	845.33
384.79	820.00
384.93	785.00
385.06	788.67
385.19	820.67
385.33	912.67
385.46	819.67
385.59	779.00
385.72	809.33
385.86	750.67
385.99	785.33
386.12	794.67
386.25	769.00
386.39	839.00
386.52	851.67
386.65	802.00
386.79	789.33
386.92	786.00
387.05	871.00
387.18	756.67
387.32	772.67
387.45	830.67
387.58	818.00
387.71	792.33
387.85	789.00
387.98	815.00
388.11	832.00
388.25	814.67
388.38	796.67
388.51	828.67
388.64	830.00
388.78	774.67
388.91	758.33
389.04	803.67
389.17	902.00
389.31	809.33
389.44	840.67
389.57	850.33
389.70	823.67
389.84	784.33
389.97	778.00
390.10	780.67
390.24	820.67
390.37	797.67
390.50	775.67
390.63	865.33
390.77	798.00
390.90	811.33
391.03	812.00
391.16	756.33
391.30	782.67
391.43	790.00
391.56	787.67
391.69	775.67
391.83	849.00
391.96	804.00
392.09	786.33
392.22	884.00
392.36	821.00
392.49	777.00
392.62	799.00
392.75	816.00
392.89	849.67
393.02	770.33
393.15	770.33
393.28	754.67
393.42	883.67
393.55	760.33
393.68	778.67
393.81	726.67
393.95	779.00
394.08	772.67
394.21	778.67
394.34	843.33
394.48	833.00
394.61	839.33
394.74	821.00
394.87	843.33
395.01	819.00
395.14	828.67
395.27	781.00
395.40	887.67
395.54	891.33
395.67	805.67
395.80	793.67
395.93	825.00
396.07	785.00
396.20	784.33
396.33	735.33
396.46	776.33
396.59	799.67
396.73	797.67
396.86	778.67
396.99	852.33
397.12	816.33
397.26	802.00
397.39	801.33
397.52	1079.00
397.65	901.00
397.79	802.33
397.92	782.67
398.05	842.00
398.18	776.67
398.32	791.00
398.45	814.00
398.58	812.00
398.71	824.00
398.84	757.67
398.98	799.00
399.11	826.33
399.24	815.67
399.37	783.33
399.51	756.67
399.64	798.67
399.77	803.67
399.90	798.67
400.03	793.67
400.17	756.00
400.30	856.00
400.43	836.33
400.56	807.67
400.70	794.33
400.83	779.33
400.96	773.67
401.09	811.67
401.23	806.00
401.36	862.00
401.49	780.67
401.62	805.67
401.75	796.67
401.89	769.00
402.02	794.33
402.15	800.67
402.28	812.67
402.41	808.33
402.55	782.33
402.68	790.67
402.81	859.00
402.94	841.00
403.08	781.33
403.21	763.00
403.34	835.00
403.47	825.00
403.60	796.00
403.74	829.33
403.87	833.67
404.00	770.33
404.13	775.00
404.26	750.67
404.40	760.33
404.53	810.67
404.66	795.67
404.79	765.67
404.93	839.33
405.06	814.33
405.19	746.00
405.32	805.33
405.45	812.33
405.59	835.00
405.72	801.67
405.85	764.00
405.98	962.00
406.11	773.67
406.25	773.00
406.38	779.67
406.51	825.67
406.64	802.67
406.77	756.33
406.91	749.33
407.04	812.33
407.17	782.00
407.30	817.00
407.43	795.00
407.57	876.67
407.70	852.33
407.83	773.67
407.96	794.33
408.09	763.33
408.23	878.00
408.36	802.67
408.49	786.00
408.62	914.67
408.75	809.33
408.89	769.67
409.02	814.67
409.15	806.67
409.28	863.33
409.41	840.33
409.55	788.33
409.68	912.33
409.81	815.33
409.94	767.33
410.07	806.33
410.20	800.67
410.34	790.67
410.47	807.67
410.60	819.67
410.73	827.67
410.86	779.67
411.00	804.67
411.13	768.67
411.26	791.67
411.39	793.00
411.52	819.67
411.66	790.33
411.79	787.00
411.92	770.33
412.05	794.33
412.18	780.67
412.31	818.33
412.45	830.00
412.58	834.67
412.71	754.00
412.84	816.00
412.97	882.00
413.11	804.67
413.24	807.67
413.37	848.33
413.50	895.33
413.63	822.00
413.76	786.67
413.90	824.33
414.03	788.67
414.16	783.67
414.29	824.67
414.42	805.67
414.56	899.33
414.69	784.67
414.82	797.33
414.95	799.00
415.08	819.33
415.21	795.00
415.35	811.33
415.48	722.00
415.61	833.00
415.74	848.33
415.87	759.00
416.00	805.67
416.14	915.33
416.27	803.33
416.40	769.00
416.53	798.33
416.66	825.67
416.79	805.67
416.93	767.00
417.06	856.67
417.19	800.00
417.32	790.00
417.45	779.67
417.58	757.33
417.72	850.67
417.85	781.33
417.98	794.33
418.11	836.33
418.24	789.33
418.37	788.67
418.51	800.00
418.64	809.67
418.77	873.33
418.90	810.00
419.03	764.33
419.16	809.00
419.29	837.67
419.43	787.67
419.56	763.33
419.69	903.00
419.82	848.00
419.95	801.00
420.08	851.33
420.22	868.33
420.35	922.33
420.48	841.67
420.61	793.67
420.74	750.00
420.87	825.00
421.00	758.33
421.14	795.67
421.27	835.33
421.40	874.00
421.53	827.00
421.66	809.33
421.79	799.67
421.93	805.33
422.06	796.67
422.19	780.00
422.32	841.33
422.45	851.00
422.58	810.00
422.71	789.00
422.85	845.33
422.98	839.33
423.11	756.33
423.24	753.00
423.37	762.00
423.50	785.33
423.63	803.67
423.77	782.00
423.90	772.67
424.03	820.33
424.16	830.00
424.29	800.33
424.42	746.33
424.55	760.00
424.69	778.00
424.82	809.67
424.95	813.67
425.08	772.33
425.21	821.00
425.34	783.33
425.47	799.00
425.60	803.67
425.74	755.00
425.87	786.00
426.00	784.67
426.13	807.00
426.26	771.33
426.39	765.00
426.52	785.00
426.66	855.00
426.79	824.00
426.92	769.00
427.05	881.67
427.18	860.33
427.31	798.67
427.44	789.67
427.57	767.67
427.71	805.33
427.84	770.33
427.97	804.67
428.10	861.33
428.23	804.33
428.36	784.00
428.49	718.33
428.62	930.33
428.76	882.00
428.89	810.67
429.02	752.67
429.15	797.33
429.28	899.00
429.41	781.33
429.54	795.00
429.67	788.33
429.81	826.00
429.94	807.00
430.07	782.33
430.20	842.33
430.33	867.33
430.46	772.00
430.59	764.67
430.72	787.00
430.85	750.33
430.99	781.00
431.12	773.67
431.25	843.67
431.38	864.67
431.51	803.00
431.64	806.00
431.77	872.33
431.90	859.33
432.03	802.67
432.17	760.67
432.30	809.33
432.43	826.67
432.56	797.67
432.69	820.67
432.82	812.67
432.95	849.00
433.08	794.33
433.21	803.67
433.35	795.33
433.48	793.67
433.61	764.67
433.74	796.33
433.87	770.33
434.00	829.33
434.13	781.00
434.26	825.67
434.39	815.67
434.53	826.67
434.66	788.33
434.79	792.00
434.92	783.67
435.05	869.33
435.18	784.67
435.31	818.67
435.44	855.33
435.57	803.33
435.70	791.33
435.84	769.33
435.97	866.00
436.10	905.00
436.23	780.67
436.36	761.67
436.49	780.33
436.62	805.67
436.75	792.00
436.88	819.67
437.01	780.33
437.14	773.00
437.28	745.33
437.41	781.33
437.54	852.00
437.67	824.33
437.80	776.67
437.93	749.00
438.06	914.00
438.19	832.33
438.32	763.00
438.45	769.67
438.58	819.33
438.72	867.33
438.85	839.33
438.98	790.67
439.11	818.33
439.24	863.67
439.37	851.67
439.50	824.00
439.63	850.00
439.76	782.33
439.89	773.67
440.02	784.00
440.15	818.00
440.29	867.33
440.42	792.00
440.55	796.67
440.68	868.67
440.81	921.33
440.94	811.00
441.07	804.67
441.20	909.33
441.33	824.67
441.46	790.67
441.59	782.33
441.72	802.00
441.85	808.00
441.99	838.67
442.12	832.33
442.25	883.00
442.38	832.00
442.51	815.33
442.64	753.67
442.77	800.00
442.90	786.33
443.03	753.33
443.16	794.00
443.29	812.67
443.42	867.67
443.55	791.00
443.68	808.67
443.82	752.00
443.95	782.00
444.08	783.00
444.21	799.33
444.34	781.00
444.47	790.67
444.60	792.33
444.73	814.33
444.86	802.67
444.99	867.00
445.12	818.33
445.25	816.67
445.38	810.33
445.51	834.33
445.64	818.00
445.78	779.33
445.91	738.33
446.04	901.00
446.17	844.33
446.30	752.00
446.43	821.00
446.56	796.67
446.69	773.67
446.82	787.67
446.95	859.67
447.08	838.33
447.21	813.67
447.34	791.00
447.47	853.33
447.60	831.67
447.73	799.00
447.86	833.33
447.99	804.67
448.13	814.33
448.26	827.33
448.39	790.67
448.52	832.67
448.65	832.33
448.78	801.67
448.91	797.33
449.04	829.00
449.17	793.00
449.30	822.33
449.43	808.67
449.56	801.00
449.69	855.67
449.82	800.67
449.95	753.67
450.08	857.33
450.21	833.67
450.34	799.67
450.47	797.00
450.60	833.33
450.73	795.00
450.87	794.00
451.00	814.67
451.13	838.33
451.26	950.00
451.39	794.67
451.52	821.67
451.65	793.00
451.78	785.33
451.91	789.33
452.04	774.33
452.17	892.00
452.30	884.33
452.43	777.33
452.56	786.67
452.69	848.33
452.82	771.00
452.95	823.00
453.08	773.00
453.21	735.00
453.34	835.67
453.47	769.00
453.60	850.33
453.73	890.00
453.86	825.33
453.99	819.33
454.12	812.00
454.25	802.67
454.38	814.67
454.52	770.67
454.65	792.67
454.78	779.33
454.91	743.33
455.04	774.33
455.17	761.00
455.30	771.67
455.43	860.33
455.56	784.00
455.69	758.67
455.82	825.00
455.95	812.33
456.08	755.67
456.21	764.00
456.34	744.67
456.47	739.67
456.60	775.33
456.73	776.33
456.86	786.67
456.99	815.00
457.12	769.00
457.25	780.33
457.38	854.33
457.51	829.00
457.64	817.33
457.77	784.67
457.90	795.33
458.03	781.33
458.16	783.67
458.29	795.67
458.42	789.67
458.55	753.67
458.68	774.00
458.81	790.33
458.94	854.67
459.07	900.00
459.20	756.33
459.33	770.00
459.46	852.00
459.59	889.67
459.72	852.33
459.85	800.00
459.98	872.33
460.11	835.33
460.24	800.00
460.37	756.67
460.50	839.67
460.63	798.33
460.76	789.00
460.89	812.00
461.02	831.00
461.15	837.67
461.28	798.67
461.41	787.33
461.54	877.67
461.67	772.67
461.80	814.00
461.93	846.33
462.06	821.67
462.19	851.00
462.32	784.67
462.45	785.33
462.58	839.33
462.71	785.00
462.84	797.33
462.97	737.00
463.10	796.00
463.23	808.67
463.36	833.00
463.49	805.67
463.62	752.67
463.75	827.00
463.88	797.00
464.01	801.67
464.14	764.67
464.27	888.00
464.40	795.67
464.53	790.00
464.66	825.67
464.79	808.67
464.92	813.67
465.05	768.33
465.18	797.00
465.31	797.67
465.44	801.33
465.57	769.00
465.70	792.00
465.83	903.67
465.96	808.67
466.09	779.33
466.22	828.67
466.35	819.33
466.48	780.33
466.61	777.00
466.74	784.33
466.87	838.00
467.00	835.33
467.13	831.33
467.26	830.33
467.39	762.33
467.52	756.33
467.65	786.67
467.78	864.33
467.91	802.67
468.04	816.67
468.17	784.67
468.30	785.00
468.43	759.00
468.56	778.00
468.69	819.33
468.82	833.33
468.95	762.67
469.08	786.67
469.21	797.33
469.34	833.33
469.47	890.33
469.60	875.00
469.73	805.33
469.86	808.00
469.99	848.67
470.11	777.33
470.24	776.67
470.37	837.00
470.50	807.33
470.63	774.00
470.76	795.00
470.89	843.67
471.02	897.67
471.15	780.33
471.28	791.67
471.41	893.00
471.54	819.33
471.67	790.67
471.80	735.33
471.93	835.67
472.06	814.33
472.19	801.33
472.32	767.67
472.45	891.00
472.58	841.67
472.71	811.33
472.84	778.00
472.97	769.33
473.10	754.00
473.23	842.00
473.36	746.00
473.49	850.67
473.62	851.67
473.74	823.00
473.87	833.67
474.00	778.00
474.13	774.00
474.26	810.67
474.39	834.00
474.52	800.67
474.65	785.33
474.78	803.67
474.91	755.00
475.04	825.67
475.17	915.00
475.30	823.67
475.43	812.00
475.56	850.67
475.69	786.33
475.82	821.00
475.95	775.33
476.08	859.00
476.21	800.33
476.34	837.67
476.46	826.67
476.59	852.67
476.72	782.67
476.85	789.67
476.98	769.00
477.11	858.67
477.24	804.67
477.37	749.67
477.50	795.33
477.63	822.00
477.76	773.00
477.89	733.00
478.02	767.67
478.15	793.33
478.28	783.33
478.41	819.33
478.54	781.33
478.66	835.33
478.79	785.67
478.92	795.67
479.05	790.00
479.18	805.67
479.31	771.00
479.44	776.33
479.57	777.67
479.70	783.67
479.83	807.00
479.96	787.00
480.09	817.33
480.22	922.00
480.35	909.67
480.48	834.00
480.60	810.00
480.73	782.00
480.86	825.33
480.99	792.67
481.12	795.67
481.25	807.67
481.38	855.67
481.51	795.33
481.64	803.67
481.77	813.33
481.90	797.67
482.03	790.67
482.16	785.67
482.29	852.67
482.41	806.00
482.54	832.33
482.67	780.00
482.80	798.67
482.93	851.33
483.06	768.00
483.19	856.33
483.32	827.67
483.45	803.67
483.58	797.67
483.71	828.00
483.84	838.00
483.97	825.00
484.09	806.00
484.22	790.00
484.35	770.00
484.48	754.00
484.61	777.00
484.74	785.33
484.87	810.67
485.00	756.33
485.13	824.00
485.26	761.33
485.39	823.00
485.52	800.67
485.64	868.00
485.77	836.33
485.90	856.67
486.03	763.33
486.16	810.33
486.29	761.33
486.42	798.67
486.55	817.67
486.68	793.00
486.81	826.67
486.94	810.33
487.06	787.67
487.19	833.00
487.32	822.33
487.45	801.00
487.58	781.67
487.71	797.33
487.84	765.67
487.97	842.00
488.10	846.67
488.23	788.33
488.35	757.00
488.48	782.00
488.61	752.33
488.74	781.67
488.87	772.67
489.00	811.33
489.13	891.00
489.26	833.67
489.39	836.33
489.52	842.33
489.64	834.67
489.77	802.67
489.90	810.67
490.03	802.33
490.16	780.33
490.29	784.00
490.42	784.67
490.55	804.33
490.68	763.67
490.81	790.33
490.93	756.33
491.06	866.00
491.19	826.33
491.32	810.00
491.45	831.00
491.58	757.00
491.71	805.00
491.84	791.00
491.97	782.33
492.09	855.67
492.22	828.00
492.35	810.00
492.48	841.33
492.61	817.00
492.74	799.00
492.87	814.33
493.00	801.67
493.12	765.67
493.25	804.33
493.38	806.67
493.51	777.33
493.64	761.33
493.77	799.67
493.90	830.00
494.03	828.33
494.16	858.67
494.28	844.33
494.41	796.00
494.54	798.00
494.67	900.67
494.80	879.67
494.93	798.00
495.06	827.00
495.19	825.00
495.31	803.00
495.44	793.67
495.57	774.67
495.70	824.00
495.83	794.67
495.96	772.67
496.09	812.33
496.22	870.00
496.34	888.00
496.47	793.33
496.60	823.33
496.73	848.00
496.86	834.33
496.99	771.33
497.12	797.67
497.24	745.00
497.37	806.33
497.50	786.67
497.63	775.33
497.76	790.67
497.89	863.00
498.02	832.67
498.15	726.33
498.27	804.33
498.40	845.67
498.53	872.67
498.66	824.00
498.79	839.67
498.92	762.33
499.05	818.00
499.17	788.00
499.30	835.00
499.43	886.33
499.56	836.00
499.69	758.00
499.82	817.67
499.95	784.67
500.07	773.67
500.20	799.33
500.33	845.00
500.46	939.67
500.59	813.33
500.72	824.00
500.85	858.67
500.97	852.33
501.10	844.67
501.23	767.67
501.36	811.67
501.49	865.33
501.62	818.00
501.75	800.67
501.87	844.00
502.00	755.33
502.13	831.33
502.26	826.67
502.39	782.67
502.52	790.00
502.64	755.33
502.77	785.33
502.90	839.67
503.03	803.00
503.16	781.33
503.29	782.00
503.42	852.67
503.54	810.00
503.67	814.67
503.80	812.00
503.93	843.00
504.06	771.00
504.19	806.00
504.31	855.67
504.44	816.33
504.57	817.33
504.70	819.67
504.83	748.67
504.96	818.67
505.08	807.67
505.21	811.00
505.34	905.00
505.47	858.33
505.60	848.00
505.73	856.67
505.85	843.33
505.98	929.67
506.11	808.33
506.24	765.00
506.37	784.00
506.50	815.33
506.62	844.33
506.75	784.67
506.88	778.67
507.01	808.33
507.14	759.33
507.27	794.33
507.39	769.00
507.52	775.00
507.65	796.67
507.78	825.33
507.91	771.67
508.04	863.33
508.16	860.00
508.29	823.33
508.42	794.67
508.55	762.67
508.68	773.67
508.81	837.33
508.93	784.67
509.06	791.33
509.19	839.67
509.32	835.67
509.45	836.67
509.57	818.33
509.70	775.67
509.83	813.33
509.96	768.67
510.09	813.67
510.22	803.00
510.34	812.33
510.47	802.00
510.60	903.00
510.73	821.33
510.86	832.00
510.98	797.00
511.11	776.00
511.24	854.67
511.37	824.67
511.50	800.67
511.63	815.33
511.75	817.00
511.88	811.33
512.01	816.67
512.14	801.67
512.27	808.67
512.39	804.33
512.52	800.33
512.65	810.67
512.78	776.33
512.91	812.67
513.03	804.67
513.16	844.33
513.29	810.67
513.42	786.33
513.55	767.33
513.67	822.00
513.80	760.67
513.93	781.00
514.06	783.00
514.19	818.00
514.31	821.67
514.44	839.00
514.57	800.00
514.70	810.67
514.83	846.67
514.95	789.67
515.08	817.67
515.21	816.67
515.34	796.67
515.47	804.67
515.59	779.00
515.72	832.67
515.85	825.67
515.98	855.67
516.11	812.00
516.23	844.33
516.36	872.00
516.49	818.33
516.62	813.00
516.75	859.00
516.87	857.00
517.00	781.33
517.13	828.67
517.26	847.00
517.39	830.33
517.51	743.33
517.64	803.33
517.77	869.33
517.90	770.67
518.02	794.67
518.15	772.33
518.28	729.67
518.41	815.33
518.54	810.00
518.66	814.33
518.79	774.33
518.92	792.67
519.05	766.67
519.18	803.33
519.30	827.33
519.43	759.33
519.56	779.67
519.69	793.33
519.81	853.33
519.94	793.00
520.07	743.67
520.20	790.00
520.33	812.67
520.45	860.33
520.58	817.67
520.71	829.33
520.84	848.67
520.96	824.67
521.09	797.33
521.22	792.67
521.35	832.00
521.48	836.00
521.60	787.33
521.73	816.33
521.86	850.67
521.99	884.00
522.11	816.33
522.24	816.00
522.37	834.67
522.50	812.00
522.62	851.67
522.75	750.00
522.88	807.00
523.01	778.67
523.14	831.33
523.26	821.00
523.39	876.00
523.52	778.33
523.65	891.33
523.77	839.67
523.90	802.00
524.03	784.33
524.16	786.67
524.28	797.67
524.41	788.00
524.54	799.33
524.67	771.33
524.79	787.00
524.92	831.00
525.05	865.67
525.18	778.00
525.31	847.33
525.43	774.33
525.56	911.00
525.69	791.00
525.82	743.00
525.94	845.33
526.07	847.33
526.20	825.67
526.33	840.33
526.45	920.33
526.58	883.33
526.71	819.33
526.84	800.33
526.96	808.00
527.09	772.00
527.22	790.33
527.35	813.00
527.47	769.33
527.60	867.00
527.73	771.33
527.86	834.00
527.98	823.00
528.11	826.33
528.24	769.33
528.37	794.00
528.49	764.33
528.62	811.67
528.75	839.00
528.88	782.00
529.00	838.67
529.13	852.33
529.26	812.33
529.39	848.00
529.51	936.67
529.64	905.00
529.77	784.00
529.90	787.67
530.02	794.67
530.15	773.33
530.28	744.33
530.40	774.00
530.53	798.33
530.66	825.67
530.79	787.33
530.91	802.33
531.04	783.00
531.17	795.67
531.30	809.67
531.42	813.67
531.55	813.33
531.68	864.67
531.81	787.67
531.93	807.33
532.06	819.33
532.19	756.00
532.31	802.33
532.44	796.00
532.57	833.00
532.70	782.00
532.82	806.67
532.95	833.67
533.08	870.67
533.21	828.67
533.33	792.33
533.46	792.33
533.59	790.00
533.71	913.00
533.84	829.67
533.97	792.00
534.10	780.67
534.22	769.33
534.35	792.00
534.48	809.33
534.61	829.33
534.73	739.67
534.86	775.33
534.99	821.33
535.11	855.33
535.24	808.67
535.37	767.00
535.50	760.67
535.62	772.33
535.75	866.67
535.88	811.67
536.00	786.00
536.13	781.00
536.26	784.33
536.39	773.00
536.51	755.00
536.64	821.33
536.77	802.33
536.89	804.67
537.02	809.67
537.15	817.67
537.28	807.67
537.40	826.00
537.53	787.33
537.66	845.67
537.78	799.00
537.91	768.33
538.04	784.67
538.17	840.00
538.29	822.00
538.42	873.67
538.55	857.67
538.67	841.33
538.80	784.00
538.93	820.33
539.05	805.67
539.18	867.00
539.31	830.67
539.44	816.67
539.56	736.00
539.69	794.00
539.82	782.00
539.94	766.67
540.07	769.00
540.20	863.33
540.32	777.00
540.45	796.67
540.58	780.33
540.71	842.00
540.83	762.00
540.96	790.00
541.09	795.00
541.21	867.33
541.34	861.67
541.47	777.67
541.59	804.67
541.72	871.33
541.85	942.33
541.98	858.00
542.10	802.33
542.23	807.00
542.36	918.33
542.48	812.33
542.61	796.00
542.74	768.00
542.86	784.67
542.99	794.67
543.12	780.00
543.24	811.00
543.37	750.00
543.50	792.33
543.62	779.33
543.75	791.00
543.88	791.00
544.01	810.67
544.13	833.67
544.26	824.00
544.39	777.00
544.51	785.67
544.64	770.67
544.77	818.33
544.89	790.67
545.02	808.67
545.15	780.33
545.27	885.67
545.40	847.33
545.53	823.00
545.65	818.33
545.78	734.67
545.91	770.67
546.03	784.33
546.16	792.67
546.29	781.33
546.41	766.00
546.54	787.33
546.67	775.67
546.79	827.33
546.92	865.00
547.05	756.33
547.17	801.00
547.30	775.33
547.43	825.33
547.56	765.00
547.68	800.00
547.81	760.00
547.94	818.33
548.06	794.00
548.19	762.33
548.32	857.00
548.44	806.00
548.57	822.67
548.70	835.33
548.82	840.00
548.95	823.33
549.08	799.67
549.20	782.67
549.33	873.00
549.45	803.00
549.58	783.33
549.71	757.67
549.83	842.33
549.96	760.67
550.09	793.67
550.21	780.00
550.34	821.00
550.47	785.00
550.59	791.00
550.72	726.33
550.85	800.00
550.97	865.67
551.10	774.00
551.23	794.00
551.35	857.00
551.48	813.67
551.61	793.00
551.73	779.33
551.86	860.67
551.99	860.67
552.11	804.00
552.24	826.67
552.37	805.33
552.49	765.33
552.62	788.67
552.75	829.00
552.87	780.00
553.00	780.00
553.12	811.33
553.25	790.00
553.38	820.00
553.50	850.33
553.63	795.33
553.76	740.33
553.88	792.67
554.01	790.33
554.14	790.33
554.26	829.00
554.39	875.33
554.52	801.00
554.64	800.67
554.77	784.33
554.89	834.33
555.02	840.33
555.15	817.33
555.27	808.33
555.40	807.33
555.53	851.67
555.65	793.00
555.78	771.67
555.91	824.00
556.03	868.00
556.16	764.33
556.29	797.67
556.41	853.00
556.54	856.33
556.66	809.67
556.79	795.00
556.92	815.00
557.04	813.67
557.17	787.67
557.30	798.67
557.42	792.33
557.55	799.67
557.67	819.67
557.80	798.33
557.93	800.67
558.05	804.00
558.18	776.33
558.31	809.33
558.43	837.67
558.56	809.67
558.68	794.33
558.81	771.67
558.94	797.67
559.06	911.00
559.19	795.33
559.32	783.00
559.44	757.67
559.57	795.00
559.69	773.33
559.82	774.33
559.95	777.00
560.07	779.33
560.20	733.00
560.33	792.33
560.45	813.00
560.58	748.67
560.70	804.00
560.83	763.00
560.96	774.67
561.08	793.00
561.21	825.00
561.33	768.33
561.46	752.67
561.59	841.67
561.71	780.67
561.84	805.00
561.97	758.67
562.09	830.00
562.22	778.33
562.34	757.33
562.47	828.33
562.60	815.33
562.72	790.67
562.85	799.00
562.97	784.00
563.10	786.00
563.23	767.33
563.35	777.33
563.48	803.00
563.60	785.33
563.73	816.33
563.86	748.33
563.98	764.00
564.11	796.33
564.23	792.33
564.36	850.00
564.49	794.00
564.61	850.33
564.74	808.67
564.86	781.00
564.99	848.33
565.12	819.67
565.24	845.00
565.37	824.33
565.49	831.67
565.62	858.00
565.75	834.67
565.87	779.67
566.00	917.33
566.12	854.00
566.25	801.67
566.38	831.00
566.50	804.33
566.63	838.33
566.75	794.33
566.88	775.67
567.01	758.00
567.13	783.67
567.26	797.33
567.38	771.33
567.51	834.00
567.64	770.67
567.76	812.67
567.89	809.33
568.01	765.67
568.14	753.33
568.26	803.00
568.39	796.33
568.52	800.67
568.64	824.00
568.77	789.33
568.89	784.33
569.02	773.00
569.15	788.00
569.27	784.33
569.40	810.33
569.52	838.33
569.65	779.00
569.77	787.33
569.90	750.33
570.03	736.00
570.15	860.00
570.28	791.33
570.40	790.00
570.53	792.00
570.66	846.00
570.78	838.00
570.91	809.00
571.03	758.67
571.16	793.00
571.28	756.33
571.41	742.33
571.54	741.00
571.66	734.00
571.79	764.33
571.91	766.00
572.04	740.00
572.16	798.00
572.29	825.33
572.42	776.00
572.54	808.67
572.67	771.00
572.79	808.00
572.92	801.00
573.04	814.00
573.17	829.33
573.29	800.00
573.42	784.33
573.55	820.33
573.67	813.00
573.80	797.67
573.92	760.00
574.05	799.33
574.17	838.00
574.30	793.00
574.43	786.33
574.55	775.67
574.68	808.67
574.80	780.67
574.93	782.67
575.05	761.00
575.18	780.67
575.30	787.67
575.43	826.67
575.56	856.67
575.68	815.33
575.81	782.00
575.93	759.67
576.06	804.67
576.18	825.33
576.31	782.67
576.43	765.00
576.56	877.67
576.69	842.33
576.81	803.00
576.94	780.00
577.06	786.67
577.19	833.67
577.31	809.67
577.44	815.00
577.56	839.00
577.69	800.00
577.82	812.00
577.94	776.00
578.07	746.33
578.19	816.33
578.32	831.67
578.44	775.00
578.57	781.00
578.69	836.67
578.82	807.33
578.94	831.67
579.07	844.33
579.19	828.67
579.32	806.33
579.45	811.67
579.57	783.67
579.70	755.00
579.82	807.33
579.95	789.33
580.07	854.00
580.20	786.33
580.32	807.33
580.45	835.33
580.57	830.33
580.70	819.67
580.82	817.00
580.95	817.67
581.08	756.00
581.20	829.67
581.33	786.67
581.45	812.33
581.58	797.67
581.70	807.33
581.83	729.33
581.95	809.33
582.08	818.33
582.20	792.00
582.33	796.00
582.45	775.67
582.58	782.00
582.70	813.00
582.83	777.33
582.95	797.67
583.08	824.00
583.21	843.33
583.33	807.00
583.46	772.00
583.58	748.33
583.71	816.33
583.83	811.33
583.96	810.33
584.08	813.00
584.21	823.00
584.33	817.67
584.46	791.00
584.58	758.67
584.71	835.33
584.83	825.33
584.96	802.33
585.08	775.00
585.21	894.67
585.33	867.67
585.46	828.00
585.58	830.33
585.71	777.33
585.83	795.67
585.96	837.67
586.08	828.67
586.21	812.33
586.33	824.00
586.46	766.33
586.59	824.67
586.71	766.67
586.84	821.33
586.96	811.67
587.09	744.00
587.21	772.67
587.34	831.00
587.46	793.67
587.59	754.00
587.71	794.00
587.84	783.00
587.96	747.00
588.09	763.33
588.21	809.00
588.34	787.00
588.46	804.00
588.59	779.00
588.71	810.00
588.84	808.67
588.96	801.00
589.09	877.67
589.21	800.67
589.34	766.00
589.46	793.67
589.59	805.33
589.71	846.67
589.84	752.33
589.96	768.33
590.09	792.33
590.21	823.33
590.34	806.67
590.46	806.67
590.59	778.33
590.71	781.00
590.84	844.67
590.96	771.00
591.09	811.33
591.21	808.67
591.34	779.00
591.46	784.33
591.59	848.33
591.71	819.33
591.83	789.67
591.96	743.00
592.08	779.33
592.21	815.67
592.33	801.33
592.46	786.00
592.58	805.33
592.71	832.33
592.83	880.33
592.96	838.00
593.08	849.00
593.21	772.00
593.33	759.33
593.46	786.33
593.58	791.67
593.71	832.67
593.83	834.67
593.96	768.00
594.08	897.67
594.21	802.00
594.33	791.00
594.46	762.33
594.58	742.00
594.71	723.33
594.83	810.00
594.96	793.00
595.08	935.00
595.20	822.00
595.33	810.33
595.45	763.67
595.58	881.00
595.70	815.67
595.83	788.00
595.95	796.67
596.08	806.67
596.20	758.00
596.33	747.00
596.45	796.33
596.58	773.33
596.70	756.67
596.83	775.67
596.95	776.00
597.08	805.67
597.20	752.00
597.32	778.33
597.45	806.33
597.57	787.33
597.70	824.67
597.82	767.67
597.95	801.33
598.07	790.67
598.20	809.67
598.32	788.67
598.45	788.33
598.57	837.00
598.70	857.00
598.82	777.33
598.94	778.33
599.07	829.00
599.19	790.33
599.32	779.33
599.44	715.67
599.57	834.00
599.69	805.33
599.82	785.33
599.94	759.33
600.07	833.33
600.19	808.00
600.31	775.67
600.44	835.00
600.56	888.67
600.69	884.67
600.81	774.33
600.94	789.00
601.06	807.33
601.19	831.67
601.31	843.33
601.44	767.67
601.56	850.00
601.68	823.00
601.81	809.00
601.93	803.67
602.06	818.67
602.18	758.67
602.31	800.67
602.43	847.67
602.56	834.00
602.68	797.00
602.80	801.00
602.93	811.67
603.05	779.00
603.18	810.67
603.30	763.67
603.43	771.33
603.55	798.67
603.68	806.33
603.80	811.00
603.92	801.67
604.05	783.67
604.17	778.67
604.30	759.33
604.42	782.67
604.55	789.00
604.67	820.33
604.79	776.00
604.92	788.00
605.04	777.00
605.17	769.33
605.29	784.00
605.42	771.00
605.54	846.33
605.66	798.67
605.79	814.33
605.91	795.33
606.04	787.67
606.16	771.67
606.29	811.67
606.41	770.33
606.53	789.00
606.66	743.00
606.78	797.33
606.91	781.33
607.03	789.67
607.16	773.00
607.28	755.00
607.40	797.67
607.53	808.00
607.65	757.67
607.78	761.00
607.90	798.67
608.03	885.33
608.15	811.00
608.27	811.67
608.40	752.33
608.52	804.00
608.65	794.67
608.77	832.00
608.89	792.00
609.02	856.67
609.14	871.67
609.27	822.00
609.39	836.67
609.52	773.33
609.64	735.00
609.76	791.33
609.89	793.00
610.01	846.67
610.14	824.67
610.26	783.67
610.38	758.33
610.51	837.67
610.63	788.00
610.76	755.67
610.88	815.67
611.01	852.67
611.13	878.00
611.25	828.00
611.38	770.00
611.50	798.00
611.63	820.33
611.75	809.00
611.87	813.67
612.00	777.00
612.12	845.00
612.25	787.33
612.37	774.33
612.49	853.00
612.62	835.00
612.74	863.00
612.87	802.33
612.99	791.33
613.11	738.67
613.24	773.67
613.36	790.33
613.49	799.33
613.61	790.67
613.73	778.67
613.86	834.00
613.98	765.00
614.11	825.00
614.23	830.67
614.35	848.67
614.48	841.33
614.60	808.67
614.72	786.67
614.85	799.67
614.97	805.00
615.10	791.67
615.22	785.00
615.34	803.33
615.47	837.33
615.59	782.00
615.72	792.67
615.84	807.67
615.96	766.67
616.09	873.00
616.21	784.33
616.34	778.33
616.46	789.00
616.58	812.33
616.71	812.67
616.83	838.00
616.95	831.00
617.08	821.67
617.20	793.33
617.33	765.00
617.45	781.33
617.57	806.33
617.70	805.00
617.82	771.67
617.95	803.00
618.07	852.00
618.19	824.33
618.32	811.67
618.44	779.00
618.56	762.33
618.69	738.00
618.81	744.33
618.94	819.33
619.06	803.67
619.18	790.67
619.31	763.00
619.43	749.00
619.55	811.33
619.68	806.67
619.80	767.00
619.92	814.67
620.05	911.00
620.17	852.33
620.30	796.33
620.42	822.33
620.54	833.67
620.67	774.00
620.79	807.67
620.91	814.33
621.04	846.67
621.16	783.00
621.29	772.00
621.41	738.67
621.53	777.33
621.66	786.00
621.78	783.00
621.90	833.33
622.03	884.00
622.15	800.00
622.27	795.33
622.40	800.33
622.52	779.67
622.64	783.67
622.77	752.00
622.89	803.00
623.02	825.00
623.14	823.33
623.26	826.00
623.39	814.33
623.51	848.33
623.63	795.33
623.76	765.33
623.88	844.33
624.00	790.00
624.13	766.33
624.25	762.33
624.37	754.00
624.50	841.00
624.62	818.00
624.75	762.00
624.87	748.33
624.99	812.67
625.12	783.67
625.24	781.00
625.36	863.67
625.49	818.67
625.61	816.33
625.73	802.67
625.86	839.33
625.98	796.67
626.10	783.00
626.23	755.33
626.35	806.33
626.47	782.00
626.60	762.67
626.72	781.67
626.84	777.33
626.97	807.33
627.09	787.33
627.21	797.33
627.34	894.00
627.46	881.33
627.58	797.33
627.71	811.67
627.83	828.33
627.95	759.67
628.08	793.67
628.20	829.33
628.32	740.00
628.45	720.67
628.57	731.67
628.69	774.00
628.82	805.67
628.94	845.33
629.06	802.00
629.19	779.00
629.31	824.00
629.43	764.33
629.56	813.33
629.68	799.00
629.80	838.33
629.93	766.00
630.05	767.33
630.17	763.00
630.30	787.00
630.42	762.33
630.54	816.33
630.67	792.00
630.79	768.00
630.91	905.67
631.04	815.33
631.16	802.67
631.28	805.67
631.41	771.00
631.53	748.33
631.65	802.67
631.78	807.67
631.90	790.67
632.02	790.00
632.14	722.00
632.27	844.67
632.39	792.33
632.51	774.33
632.64	833.67
632.76	786.67
632.88	782.67
633.01	795.00
633.13	783.67
633.25	792.00
633.38	891.33
633.50	752.67
633.62	750.00
633.75	734.00
633.87	724.33
633.99	808.00
634.11	743.67
634.24	784.00
634.36	785.67
634.48	775.33
634.61	776.67
634.73	806.67
634.85	771.00
634.98	761.67
635.10	774.67
635.22	791.67
635.35	901.67
635.47	811.00
635.59	783.67
635.71	802.67
635.84	831.67
635.96	783.33
636.08	826.00
636.21	770.00
636.33	791.33
636.45	786.67
636.58	764.00
636.70	738.67
636.82	804.67
636.94	775.67
637.07	746.00
637.19	815.67
637.31	806.33
637.44	810.67
637.56	735.67
637.68	808.00
637.81	805.00
637.93	806.33
638.05	762.67
638.17	827.33
638.30	892.33
638.42	788.00
638.54	772.00
638.67	787.67
638.79	780.67
638.91	758.67
639.03	789.33
639.16	781.00
639.28	783.00
639.40	800.67
639.53	779.33
639.65	820.33
639.77	785.67
639.89	795.67
640.02	793.33
640.14	795.67
640.26	752.67
640.39	812.67
640.51	765.00
640.63	806.67
640.75	824.33
640.88	797.67
641.00	772.33
641.12	769.00
641.24	858.67
641.37	782.67
641.49	754.00
641.61	891.67
641.74	758.67
641.86	806.67
641.98	756.33
642.10	797.00
642.23	804.00
642.35	763.67
642.47	811.67
642.60	801.00
642.72	820.00
642.84	736.00
642.96	759.67
643.09	755.00
643.21	757.00
643.33	757.00
643.45	764.33
643.58	832.00
643.70	867.33
643.82	783.00
643.94	781.33
644.07	784.67
644.19	787.67
644.31	795.67
644.44	802.67
644.56	783.00
644.68	753.67
644.80	752.00
644.93	755.00
645.05	767.00
645.17	800.33
645.29	803.33
645.42	797.67
645.54	781.00
645.66	811.67
645.78	792.00
645.91	770.67
646.03	804.33
646.15	853.33
646.27	772.00
646.40	793.67
646.52	816.33
646.64	830.33
646.76	785.67
646.89	733.33
647.01	814.33
647.13	795.33
647.25	818.33
647.38	765.00
647.50	754.33
647.62	825.67
647.74	739.33
647.87	757.67
647.99	801.67
648.11	810.00
648.23	786.33
648.36	738.33
648.48	849.67
648.60	794.00
648.72	770.67
648.85	752.00
648.97	829.33
649.09	803.67
649.21	778.67
649.34	794.67
649.46	799.67
649.58	795.00
649.70	814.00
649.83	773.00
649.95	803.67
650.07	826.67
650.19	823.00
650.32	795.67
650.44	832.00
650.56	796.00
650.68	759.00
650.81	771.67
650.93	770.00
651.05	837.67
651.17	765.00
651.29	806.00
651.42	779.00
651.54	805.33
651.66	759.33
651.78	765.33
651.91	812.33
652.03	896.67
652.15	806.33
652.27	762.00
652.40	795.33
652.52	779.33
652.64	803.00
652.76	771.00
652.88	880.67
653.01	789.33
653.13	750.00
653.25	724.67
653.37	810.67
653.50	793.33
653.62	811.67
653.74	749.00
653.86	824.00
653.98	809.67
654.11	759.67
654.23	783.33
654.35	771.67
654.47	893.00
654.60	777.67
654.72	779.00
654.84	749.33
654.96	822.00
655.08	773.67
655.21	808.67
655.33	781.33
655.45	838.33
655.57	795.00
655.70	789.67
655.82	825.33
655.94	860.67
656.06	819.00
656.18	759.33
656.31	833.67
656.43	820.67
656.55	761.67
656.67	779.00
656.79	790.33
656.92	831.67
657.04	808.67
657.16	782.67
657.28	899.67
657.40	798.00
657.53	814.00
657.65	774.00
657.77	845.33
657.89	837.00
658.01	778.00
658.14	753.00
658.26	812.00
658.38	774.00
658.50	760.33
658.62	756.00
658.75	899.33
658.87	822.33
658.99	809.33
659.11	761.33
659.23	835.33
659.36	884.33
659.48	836.33
659.60	815.33
659.72	805.00
659.84	776.67
659.97	812.00
660.09	828.33
660.21	901.00
660.33	842.67
660.45	744.33
660.58	719.33
660.70	769.33
660.82	782.00
660.94	747.00
661.06	790.67
661.19	850.67
661.31	825.00
661.43	801.33
661.55	785.67
661.67	821.00
661.80	850.00
661.92	789.33
662.04	797.00
662.16	793.00
662.28	849.67
662.40	802.33
662.53	784.00
662.65	810.67
662.77	761.67
662.89	787.33
663.01	768.33
663.14	780.67
663.26	804.00
663.38	790.00
663.50	750.67
663.62	773.67
663.74	792.00
663.87	774.00
663.99	806.33
664.11	815.33
664.23	895.00
664.35	781.33
664.48	768.33
664.60	787.33
664.72	782.33
664.84	742.00
664.96	786.33
665.08	836.67
665.21	812.67
665.33	814.33
665.45	735.33
665.57	782.33
665.69	857.33
665.81	794.33
665.94	757.33
666.06	755.00
666.18	793.00
666.30	779.00
666.42	771.33
666.54	796.33
666.67	816.67
666.79	761.00
666.91	822.67
667.03	788.00
667.15	753.00
667.27	785.00
667.40	752.00
667.52	782.00
667.64	821.67
667.76	769.33
667.88	749.33
668.00	824.33
668.13	826.33
668.25	756.67
668.37	760.00
668.49	774.00
668.61	839.00
668.73	788.67
668.85	799.67
668.98	815.00
669.10	790.67
669.22	776.33
669.34	789.00
669.46	818.33
669.58	769.00
669.71	793.67
669.83	791.00
669.95	773.67
670.07	791.00
670.19	774.00
670.31	794.00
670.43	780.67
670.56	806.00
670.68	834.33
670.80	801.33
670.92	798.33
671.04	847.67
671.16	784.00
671.28	770.67
671.41	774.33
671.53	817.33
671.65	772.00
671.77	784.33
671.89	922.00
672.01	879.00
672.13	821.33
672.26	751.33
672.38	783.33
672.50	748.33
672.62	786.33
672.74	808.67
672.86	793.00
672.98	799.00
673.11	796.33
673.23	799.67
673.35	840.67
673.47	790.67
673.59	785.33
673.71	757.00
673.83	818.67
673.96	909.67
674.08	798.67
674.20	748.67
674.32	780.67
674.44	789.33
674.56	815.33
674.68	807.67
674.80	820.33
674.93	799.33
675.05	789.33
675.17	804.67
675.29	820.00
675.41	835.00
675.53	782.00
675.65	778.00
675.77	779.33
675.90	836.33
676.02	761.33
676.14	757.33
676.26	860.00
676.38	882.67
676.50	800.00
676.62	820.33
676.74	753.33
676.87	763.33
676.99	798.00
677.11	827.67
677.23	810.00
677.35	815.67
677.47	742.33
677.59	768.33
677.71	806.67
677.83	816.33
677.96	792.67
678.08	798.00
678.20	799.67
678.32	764.67
678.44	781.67
678.56	782.00
678.68	909.00
678.80	828.00
678.93	791.33
679.05	803.00
679.17	794.33
679.29	842.67
679.41	793.00
679.53	770.00
679.65	763.33
679.77	796.00
679.89	787.33
680.01	818.00
680.14	815.00
680.26	740.67
680.38	779.33
680.50	819.33
680.62	870.00
680.74	813.00
680.86	785.33
680.98	800.33
681.10	814.67
681.22	878.00
681.35	773.33
681.47	789.00
681.59	763.67
681.71	871.33
681.83	791.33
681.95	769.00
682.07	849.33
682.19	814.67
682.31	780.00
682.43	756.33
682.56	820.67
682.68	749.33
682.80	759.33
682.92	807.00
683.04	797.00
683.16	781.67
683.28	760.33
683.40	822.00
683.52	794.67
683.64	818.33
683.76	772.67
683.89	772.33
684.01	795.33
684.13	855.67
684.25	803.33
684.37	804.67
684.49	825.00
684.61	785.67
684.73	803.33
684.85	791.33
684.97	767.33
685.09	857.33
685.21	761.00
685.34	793.67
685.46	919.00
685.58	815.67
685.70	807.67
685.82	837.00
685.94	764.67
686.06	774.00
686.18	765.00
686.30	789.33
686.42	751.33
686.54	817.00
686.66	755.00
686.79	865.00
686.91	814.33
687.03	901.33
687.15	830.33
687.27	796.00
687.39	788.00
687.51	861.00
687.63	812.33
687.75	845.00
687.87	822.33
687.99	866.00
688.11	764.33
688.23	814.33
688.35	854.33
688.48	832.67
688.60	761.33
688.72	795.67
688.84	801.67
688.96	819.67
689.08	800.00
689.20	786.67
689.32	916.00
689.44	814.00
689.56	748.33
689.68	768.67
689.80	784.33
689.92	769.00
690.04	769.67
690.16	824.00
690.28	809.67
690.41	807.00
690.53	783.00
690.65	841.00
690.77	846.33
690.89	830.00
691.01	797.67
691.13	781.00
691.25	760.33
691.37	790.33
691.49	745.33
691.61	745.00
691.73	865.00
691.85	788.67
691.97	781.00
692.09	767.33
692.21	832.67
692.33	867.67
692.45	816.33
692.57	781.33
692.70	803.67
692.82	820.67
692.94	738.00
693.06	774.33
693.18	795.33
693.30	775.33
693.42	775.33
693.54	809.33
693.66	815.00
693.78	809.67
693.90	782.33
694.02	797.33
694.14	819.33
694.26	783.67
694.38	802.00
694.50	807.00
694.62	800.00
694.74	754.33
694.86	759.67
694.98	802.33
695.10	808.67
695.22	834.33
695.34	773.67
695.46	769.00
695.58	781.67
695.71	807.67
695.83	776.33
695.95	770.33
696.07	847.67
696.19	755.33
696.31	773.67
696.43	764.33
696.55	865.00
696.67	805.00
696.79	777.33
696.91	798.00
697.03	771.67
697.15	871.33
697.27	801.00
697.39	778.00
697.51	820.00
697.63	771.33
697.75	771.00
697.87	790.67
697.99	741.33
698.11	725.33
698.23	749.67
698.35	773.33
698.47	776.00
698.59	803.33
698.71	772.00
698.83	832.33
698.95	760.33
699.07	792.00
699.19	776.00
699.31	790.67
699.43	761.00
699.55	812.33
699.67	782.00
699.79	778.33
699.91	766.00
700.03	793.33
700.15	803.67
700.27	761.00
700.39	788.00
700.51	750.00
700.63	789.67
700.75	780.67
700.87	802.67
700.99	775.67
701.11	818.67
701.24	794.33
701.36	828.00
701.48	836.00
701.60	820.33
701.72	767.67
701.84	857.67
701.96	815.00
702.08	799.33
702.20	868.00
702.32	817.00
702.44	812.33
702.56	789.00
702.68	784.67
702.80	794.33
702.92	879.00
703.04	858.00
703.16	799.67
703.28	811.00
703.40	777.67
703.52	807.00
703.64	821.00
703.76	815.67
703.88	785.67
704.00	773.67
704.12	792.00
704.24	837.33
704.36	791.33
704.48	793.00
704.60	752.00
704.72	785.33
704.84	782.67
704.96	811.67
705.07	801.00
705.19	758.00
705.31	786.33
705.43	828.67
705.55	771.67
705.67	810.00
705.79	790.67
705.91	741.33
706.03	789.33
706.15	797.67
706.27	781.00
706.39	778.33
706.51	766.00
706.63	781.67
706.75	807.33
706.87	806.33
706.99	854.00
707.11	793.00
707.23	775.00
707.35	811.33
707.47	811.00
707.59	825.67
707.71	825.33
707.83	792.67
707.95	833.67
708.07	780.33
708.19	901.00
708.31	810.33
708.43	760.33
708.55	805.67
708.67	843.33
708.79	808.33
708.91	831.67
709.03	812.00
709.15	837.33
709.27	773.33
709.39	801.67
709.51	782.00
709.63	807.33
709.75	817.00
709.87	750.67
709.99	834.00
710.11	773.33
710.23	772.67
710.35	758.33
710.47	894.67
710.58	840.67
710.70	827.33
710.82	855.33
710.94	793.33
711.06	789.00
711.18	810.33
711.30	782.00
711.42	831.33
711.54	787.67
711.66	824.33
711.78	774.33
711.90	825.33
712.02	854.33
712.14	771.00
712.26	754.00
712.38	838.33
712.50	861.67
712.62	779.00
712.74	776.00
712.86	764.33
712.98	836.67
713.10	765.33
713.22	754.67
713.34	794.33
713.45	776.67
713.57	809.67
713.69	763.33
713.81	776.00
713.93	801.00
714.05	789.33
714.17	760.67
714.29	854.00
714.41	841.67
714.53	788.00
714.65	812.33
714.77	796.67
714.89	758.33
715.01	847.00
715.13	759.67
715.25	799.00
715.37	769.33
715.49	749.00
715.61	818.00
715.72	801.33
715.84	831.33
715.96	788.33
716.08	789.67
716.20	859.33
716.32	839.33
716.44	789.00
716.56	786.67
716.68	798.33
716.80	883.67
716.92	851.00
717.04	805.00
717.16	812.00
717.28	791.67
717.40	786.33
717.52	808.33
717.63	773.67
717.75	803.33
717.87	797.33
717.99	818.33
718.11	775.67
718.23	850.00
718.35	821.00
718.47	795.00
718.59	737.67
718.71	793.33
718.83	781.33
718.95	815.33
719.07	748.67
719.19	789.33
719.30	790.00
719.42	801.00
719.54	784.33
719.66	800.00
719.78	807.00
719.90	744.00
720.02	785.33
720.14	802.00
720.26	836.33
720.38	815.33
720.50	772.67
720.62	738.33
720.74	798.33
720.85	801.33
720.97	862.33
721.09	882.00
721.21	781.67
721.33	857.67
721.45	793.00
721.57	802.67
721.69	763.67
721.81	751.00
721.93	858.67
722.05	807.67
722.16	770.67
722.28	737.67
722.40	780.33
722.52	841.33
722.64	850.33
722.76	766.67
722.88	809.67
723.00	815.33
723.12	777.00
723.24	813.33
723.36	737.00
723.47	832.33
723.59	802.67
723.71	778.00
723.83	812.67
723.95	780.00
724.07	791.33
724.19	817.00
724.31	873.67
724.43	777.33
724.55	731.00
724.66	763.67
724.78	916.67
724.90	766.33
725.02	770.33
725.14	779.00
725.26	798.67
725.38	742.67
725.50	792.33
725.62	808.33
725.74	796.67
725.85	784.33
725.97	804.33
726.09	860.00
726.21	1135.33
726.33	830.33
726.45	790.00
726.57	754.67
726.69	800.67
726.81	796.00
726.92	780.67
727.04	802.67
727.16	819.67
727.28	789.33
727.40	783.67
727.52	808.33
727.64	904.67
727.76	874.33
727.88	834.00
727.99	757.67
728.11	763.00
728.23	794.00
728.35	775.00
728.47	769.00
728.59	780.67
728.71	807.67
728.83	803.00
728.94	819.33
729.06	880.00
729.18	862.33
729.30	819.00
729.42	801.67
729.54	867.00
729.66	882.00
729.78	796.67
729.90	805.33
730.01	780.67
730.13	724.33
730.25	786.00
730.37	778.00
730.49	812.67
730.61	813.67
730.73	806.00
730.84	832.00
730.96	821.67
731.08	813.33
731.20	806.00
731.32	804.33
731.44	942.33
731.56	802.33
731.68	763.00
731.79	808.00
731.91	767.00
732.03	772.33
732.15	789.33
732.27	772.33
732.39	773.33
732.51	830.67
732.62	776.33
732.74	787.00
732.86	841.00
732.98	813.67
733.10	797.67
733.22	814.33
733.34	824.00
733.45	743.33
733.57	793.33
733.69	758.33
733.81	789.00
733.93	804.00
734.05	724.67
734.17	785.00
734.28	797.33
734.40	791.00
734.52	777.00
734.64	784.67
734.76	859.00
734.88	796.67
735.00	762.33
735.11	790.00
735.23	835.67
735.35	784.00
735.47	735.33
735.59	824.67
735.71	780.67
735.83	804.67
735.94	808.00
736.06	802.67
736.18	849.33
736.30	835.00
736.42	815.67
736.54	817.00
736.65	831.00
736.77	928.67
736.89	843.67
737.01	803.00
737.13	896.00
737.25	732.33
737.36	759.00
737.48	785.33
737.60	801.67
737.72	792.00
737.84	798.33
737.96	840.67
738.08	791.67
738.19	872.00
738.31	780.33
738.43	809.00
738.55	792.67
738.67	798.67
738.79	768.33
738.90	796.67
739.02	820.67
739.14	786.33
739.26	793.67
739.38	803.00
739.50	810.67
739.61	793.33
739.73	798.33
739.85	815.33
739.97	827.00
740.09	854.33
740.20	755.33
740.32	805.33
740.44	816.00
740.56	762.00
740.68	790.33
740.80	808.33
740.91	804.00
741.03	841.33
741.15	819.33
741.27	792.67
741.39	827.33
741.51	802.00
741.62	836.33
741.74	801.00
741.86	799.33
741.98	783.00
742.10	808.33
742.21	811.00
742.33	799.33
742.45	765.33
742.57	853.33
742.69	793.00
742.80	827.67
742.92	779.67
743.04	788.33
743.16	784.00
743.28	845.67
743.40	761.33
743.51	773.00
743.63	772.33
743.75	801.00
743.87	798.67
743.99	813.67
744.10	795.67
744.22	804.67
744.34	763.33
744.46	824.33
744.58	823.00
744.69	736.33
744.81	788.33
744.93	756.33
745.05	764.33
745.17	867.67
745.28	865.67
745.40	820.00
745.52	794.67
745.64	799.33
745.76	835.00
745.87	797.33
745.99	773.33
746.11	801.33
746.23	757.67
746.35	790.67
746.46	778.67
746.58	897.67
746.70	821.00
746.82	807.33
746.94	796.33
747.05	766.00
747.17	748.00
747.29	745.67
747.41	794.67
747.53	921.33
747.64	792.67
747.76	851.00
747.88	852.67
748.00	849.33
748.12	820.00
748.23	801.33
748.35	818.67
748.47	829.00
748.59	845.67
748.70	785.67
748.82	769.00
748.94	771.67
749.06	789.33
749.18	783.67
749.29	769.67
749.41	816.00
749.53	793.67
749.65	783.33
749.76	836.33
749.88	782.67
750.00	819.00
750.12	835.00
750.24	819.67
750.35	795.33
750.47	762.00
750.59	824.33
750.71	793.33
750.82	827.67
750.94	772.00
751.06	795.00
751.18	784.00
751.30	827.00
751.41	828.67
751.53	832.00
751.65	779.33
751.77	782.33
751.88	803.33
752.00	842.67
752.12	759.00
752.24	855.67
752.35	826.33
752.47	825.00
752.59	841.67
752.71	892.67
752.83	786.67
752.94	864.67
753.06	785.00
753.18	790.67
753.30	777.67
753.41	737.00
753.53	790.00
753.65	785.33
753.77	846.00
753.88	775.67
754.00	809.33
754.12	809.67
754.24	868.67
754.35	776.00
754.47	743.00
754.59	823.33
754.71	827.33
754.82	795.33
754.94	781.33
755.06	853.67
755.18	825.33
755.29	811.67
755.41	790.67
755.53	825.67
755.65	779.00
755.76	807.33
755.88	808.00
756.00	851.67
756.12	783.67
756.23	716.33
756.35	772.67
756.47	842.00
756.59	783.33
756.70	783.33
756.82	775.33
756.94	786.33
757.06	817.33
757.17	812.33
757.29	798.33
757.41	751.00
757.53	814.67
757.64	813.00
757.76	806.67
757.88	817.33
758.00	822.00
758.11	782.33
758.23	766.00
758.35	815.33
758.47	767.00
758.58	824.67
758.70	768.67
758.82	776.33
758.94	761.33
759.05	801.00
759.17	748.67
759.29	789.00
759.40	856.00
759.52	789.00
759.64	789.33
759.76	809.33
759.87	829.00
759.99	820.67
760.11	779.00
760.23	806.00
760.34	834.33
760.46	814.67
760.58	790.67
760.70	800.67
760.81	841.67
760.93	809.33
761.05	811.67
761.16	810.00
761.28	790.67
761.40	789.00
761.52	769.00
761.63	850.33
761.75	807.67
761.87	792.67
761.98	756.33
762.10	823.67
762.22	806.33
762.34	849.67
762.45	779.00
762.57	827.67
762.69	926.67
762.81	805.33
762.92	824.67
763.04	760.33
763.16	829.33
763.27	835.33
763.39	793.33
763.51	830.67
763.63	822.67
763.74	779.67
763.86	743.67
763.98	765.00
764.09	780.00
764.21	814.67
764.33	766.00
764.44	766.00
764.56	802.67
764.68	771.67
764.80	809.33
764.91	750.67
765.03	858.33
765.15	803.00
765.26	796.00
765.38	771.33
765.50	827.67
765.62	799.00
765.73	795.67
765.85	805.33
765.97	754.33
766.08	797.67
766.20	801.67
766.32	814.33
766.43	845.67
766.55	824.00
766.67	796.33
766.79	805.33
766.90	774.00
767.02	740.00
767.14	751.00
767.25	758.33
767.37	888.33
767.49	817.00
767.60	793.67
767.72	853.33
767.84	824.67
767.95	784.33
768.07	771.00
768.19	817.33
768.31	822.67
768.42	803.00
768.54	792.67
768.66	808.67
768.77	834.33
768.89	806.33
769.01	777.33
769.12	811.67
769.24	820.00
769.36	766.33
769.47	774.00
769.59	767.33
769.71	818.00
769.82	791.67
769.94	776.67
770.06	765.00
770.17	840.33
770.29	802.67
770.41	838.67
770.53	820.33
770.64	757.00
770.76	812.33
770.88	822.00
770.99	816.33
771.11	771.33
771.23	809.00
771.34	797.67
771.46	892.33
771.58	870.00
771.69	833.33
771.81	804.00
771.93	842.33
772.04	774.67
772.16	837.00
772.28	812.67
772.39	844.33
772.51	799.67
772.63	825.67
772.74	790.67
772.86	782.33
772.98	905.67
773.09	784.67
773.21	783.67
773.33	821.00
773.44	819.33
773.56	806.00
773.68	803.00
773.79	841.67
773.91	796.33
774.03	805.00
774.14	789.00
774.26	841.67
774.38	770.00
774.49	766.33
774.61	803.00
774.73	804.00
774.84	783.67
774.96	782.00
775.08	792.00
775.19	820.00
775.31	852.67
775.43	809.33
775.54	782.67
775.66	748.33
775.77	843.00
775.89	780.00
776.01	842.00
776.12	849.33
776.24	815.67
776.36	763.00
776.47	786.67
776.59	811.33
776.71	843.33
776.82	741.00
776.94	764.33
777.06	793.00
777.17	857.33
777.29	767.67
777.41	767.33
777.52	809.00
777.64	807.67
777.75	828.33
777.87	751.67
777.99	785.00
778.10	837.00
778.22	792.33
778.34	821.67
778.45	802.67
778.57	845.67
778.69	845.33
778.80	812.67
778.92	891.00
779.04	818.00
779.15	798.67
779.27	840.00
779.38	838.00
779.50	854.00
779.62	759.67
779.73	801.33
779.85	750.67
779.97	905.67
780.08	807.00
780.20	793.67
780.31	839.67
780.43	828.33
780.55	790.00
780.66	822.00
780.78	827.33
780.90	901.33
781.01	789.00
781.13	796.33
781.25	794.67
781.36	856.67
781.48	773.67
781.59	793.33
781.71	834.67
781.83	828.33
781.94	781.00
782.06	781.00
782.18	853.67
782.29	806.00
782.41	758.67
782.52	834.00
782.64	845.67
782.76	810.67
782.87	823.33
782.99	807.33
783.10	919.33
783.22	939.00
783.34	800.67
783.45	808.67
783.57	803.67
783.69	785.00
783.80	821.00
783.92	834.67
784.03	793.67
784.15	768.67
784.27	800.33
784.38	786.00
784.50	797.67
784.61	815.00
784.73	773.00
784.85	782.33
784.96	786.67
785.08	852.00
785.19	842.33
785.31	791.67
785.43	769.33
785.54	772.67
785.66	835.00
785.77	824.33
785.89	824.67
786.01	756.33
786.12	794.00
786.24	811.67
786.35	864.67
786.47	819.67
786.59	789.33
786.70	769.33
786.82	813.00
786.93	822.67
787.05	799.00
787.17	818.00
787.28	799.00
787.40	816.33
787.51	826.33
787.63	823.33
787.75	762.67
787.86	813.33
787.98	839.00
788.09	800.33
788.21	823.00
788.33	839.67
788.44	825.00
788.56	783.67
788.67	822.00
788.79	794.33
788.91	810.67
789.02	788.33
789.14	797.00
789.25	887.33
789.37	838.00
789.48	786.00
789.60	813.33
789.72	772.33
789.83	826.67
789.95	810.33
790.06	752.33
790.18	773.33
790.30	830.00
790.41	826.00
790.53	787.00
790.64	764.67
790.76	772.67
790.87	798.00
790.99	809.33
791.11	805.67
791.22	789.00
791.34	800.33
791.45	836.00
791.57	820.00
791.68	794.33
791.80	779.33
791.92	836.67
792.03	780.67
792.15	763.33
792.26	790.00
792.38	758.33
792.49	820.67
792.61	794.67
792.73	810.33
792.84	797.00
792.96	890.00
793.07	797.33
793.19	1539.33
793.30	880.33
793.42	844.33
793.54	741.00
793.65	769.00
793.77	923.33
793.88	803.67
794.00	760.00
794.11	806.00
794.23	757.67
794.34	811.33
794.46	746.67
794.58	753.67
794.69	886.00
794.81	887.00
794.92	773.00
795.04	772.00
795.15	878.67
795.27	840.33
795.39	813.33
795.50	781.00
795.62	784.33
795.73	785.67
795.85	769.33
795.96	817.67
796.08	853.33
796.19	780.33
796.31	792.33
796.42	762.33
796.54	784.00
796.66	839.67
796.77	770.67
796.89	755.00
797.00	835.33
797.12	728.67
797.23	793.33
797.35	819.33
797.46	827.33
797.58	851.67
797.69	821.33
797.81	797.00
797.93	799.33
798.04	789.33
798.16	780.00
798.27	812.67
798.39	767.67
798.50	748.00
798.62	755.00
798.73	770.00
798.85	875.00
798.96	811.00
799.08	823.33
799.19	838.00
799.31	815.67
799.43	798.00
799.54	791.67
799.66	816.67
799.77	834.33
799.89	775.33
800.00	740.00
800.12	782.67
800.23	849.67
800.35	877.00
800.46	741.67
800.58	733.33
800.69	792.00
800.81	800.00
800.92	762.00
801.04	800.33
801.16	746.33
801.27	744.00
801.39	761.67
801.50	786.67
801.62	797.67
801.73	842.00
801.85	830.33
801.96	756.67
802.08	844.00
802.19	845.33
802.31	789.67
802.42	805.33
802.54	882.33
802.65	842.67
802.77	768.67
802.88	834.00
803.00	768.33
803.11	888.33
803.23	802.33
803.34	796.33
803.46	817.67
803.57	757.33
803.69	832.00
803.80	762.00
803.92	835.33
804.03	787.33
804.15	811.00
804.26	823.67
804.38	829.00
804.50	771.00
804.61	811.33
804.73	811.00
804.84	801.33
804.96	731.33
805.07	795.33
805.19	770.67
805.30	816.67
805.42	841.67
805.53	796.33
805.65	777.00
805.76	756.67
805.88	784.00
805.99	819.33
806.11	829.00
806.22	776.33
806.34	782.00
806.45	799.33
806.57	780.00
806.68	821.67
806.80	721.67
806.91	768.33
807.03	760.00
807.14	736.67
807.26	745.00
807.37	745.67
807.49	804.00
807.60	781.00
807.72	855.67
807.83	880.33
807.95	812.33
808.06	817.67
808.17	803.67
808.29	835.00
808.40	769.33
808.52	803.00
808.63	808.00
808.75	813.67
808.86	799.33
808.98	815.33
809.09	773.33
809.21	812.33
809.32	778.33
809.44	822.33
809.55	767.00
809.67	821.00
809.78	772.67
809.90	823.67
810.01	856.33
810.13	782.00
810.24	830.33
810.36	746.00
810.47	768.67
810.59	798.67
810.70	826.33
810.82	841.33
810.93	753.67
811.05	771.00
811.16	788.33
811.27	761.67
811.39	805.00
811.50	847.33
811.62	750.33
811.73	732.33
811.85	817.33
811.96	808.33
812.08	826.00
812.19	802.33
812.31	825.67
812.42	802.00
812.54	784.67
812.65	834.67
812.77	837.67
812.88	839.00
813.00	842.67
813.11	824.67
813.22	782.00
813.34	786.67
813.45	812.00
813.57	880.33
813.68	886.67
813.80	806.00
813.91	770.67
814.03	794.33
814.14	879.33
814.26	782.33
814.37	795.33
814.49	801.67
814.60	775.67
814.71	788.67
814.83	802.67
814.94	748.00
815.06	782.33
815.17	805.33
815.29	800.33
815.40	772.00
815.52	880.33
815.63	796.33
815.75	782.00
815.86	810.00
815.97	755.33
816.09	797.00
816.20	824.67
816.32	816.67
816.43	756.00
816.55	813.33
816.66	781.67
816.78	884.00
816.89	799.67
817.00	804.67
817.12	779.67
817.23	776.00
817.35	837.00
817.46	803.33
817.58	777.33
817.69	919.67
817.81	815.00
817.92	838.33
818.03	806.33
818.15	810.00
818.26	776.00
818.38	759.00
818.49	798.67
818.61	818.00
818.72	766.00
818.83	1788.00
818.95	928.33
819.06	776.33
819.18	783.33
819.29	817.00
819.41	809.00
819.52	809.67
819.64	805.67
819.75	776.33
819.86	760.67
819.98	783.33
820.09	815.67
820.21	807.67
820.32	774.67
820.44	824.00
820.55	875.67
820.66	790.67
820.78	837.33
820.89	794.67
821.01	819.00
821.12	809.33
821.23	822.33
821.35	787.67
821.46	857.00
821.58	814.00
821.69	793.67
821.81	783.00
821.92	854.00
822.03	804.00
822.15	812.67
822.26	775.00
822.38	767.00
822.49	825.33
822.61	822.67
822.72	817.00
822.83	857.00
822.95	799.33
823.06	817.00
823.18	862.33
823.29	871.33
823.40	840.33
823.52	804.00
823.63	761.33
823.75	892.00
823.86	802.67
823.97	761.00
824.09	837.33
824.20	773.00
824.32	819.67
824.43	805.00
824.55	846.33
824.66	897.33
824.77	803.33
824.89	826.00
825.00	866.33
825.12	804.67
825.23	838.67
825.34	765.00
825.46	767.67
825.57	842.67
825.69	793.33
825.80	742.00
825.91	782.00
826.03	762.33
826.14	831.67
826.26	780.67
826.37	797.67
826.48	794.33
826.60	811.67
826.71	780.67
826.83	809.00
826.94	816.00
827.05	853.00
827.17	846.00
827.28	804.00
827.39	783.67
827.51	769.67
827.62	814.67
827.74	809.33
827.85	791.67
827.96	788.00
828.08	797.00
828.19	891.67
828.31	792.67
828.42	748.67
828.53	818.00
828.65	851.67
828.76	865.33
828.87	816.67
828.99	765.67
