Wavelength (nm)	Intensity
377.35	805.11
377.48	596.00
377.62	613.22
377.75	616.33
377.88	825.56
378.02	814.67
378.15	815.33
378.28	790.22
378.41	861.78
378.55	833.33
378.68	811.11
378.81	792.22
378.95	813.00
379.08	810.00
379.21	774.89
379.35	834.22
379.48	840.56
379.61	889.78
379.74	812.56
379.88	800.22
380.01	879.22
380.14	931.56
380.28	854.67
380.41	777.89
380.54	833.89
380.68	842.22
380.81	760.00
380.94	850.67
381.07	886.00
381.21	890.22
381.34	811.67
381.47	756.22
381.61	964.78
381.74	829.11
381.87	779.78
382.00	837.56
382.14	906.33
382.27	862.44
382.40	807.78
382.54	881.56
382.67	882.56
382.80	784.11
382.93	786.22
383.07	816.33
383.20	819.56
383.33	854.33
383.47	794.11
383.60	772.44
383.73	966.33
383.86	854.22
384.00	815.11
384.13	807.00
384.26	856.44
384.40	863.78
384.53	815.89
384.66	868.78
384.79	835.11
384.93	804.33
385.06	806.67
385.19	834.33
385.33	946.89
385.46	851.89
385.59	794.67
385.72	834.44
385.86	776.00
385.99	808.22
386.12	813.00
386.25	783.67
386.39	864.89
386.52	876.33
386.65	815.44
386.79	807.78
386.92	797.78
387.05	902.44
387.18	777.56
387.32	788.67
387.45	854.22
387.58	827.44
387.71	803.78
387.85	792.89
387.98	835.89
388.11	851.11
388.25	834.89
388.38	816.89
388.51	858.67
388.64	864.22
388.78	798.11
388.91	777.78
389.04	816.56
389.17	925.89
389.31	827.56
389.44	846.56
389.57	887.33
389.70	848.67
389.84	808.11
389.97	799.44
390.10	804.33
390.24	844.78
390.37	808.89
390.50	799.67
390.63	893.89
390.77	826.78
390.90	825.22
391.03	818.44
391.16	777.56
391.30	803.89
391.43	802.22
391.56	799.00
391.69	791.56
391.83	867.67
391.96	829.22
392.09	809.00
392.22	910.11
392.36	843.33
392.49	789.89
392.62	816.11
392.75	843.56
392.89	878.56
393.02	787.89
393.15	786.33
393.28	773.78
393.42	901.56
393.55	774.33
393.68	799.89
393.81	753.11
393.95	807.89
394.08	800.22
394.21	797.44
394.34	859.78
394.48	847.67
394.61	852.11
394.74	831.33
394.87	868.67
395.01	848.22
395.14	845.78
395.27	789.11
395.40	917.78
395.54	919.22
395.67	827.22
395.80	811.33
395.93	846.44
396.07	800.11
396.20	794.44
396.33	754.67
396.46	800.33
396.59	812.89
396.73	812.44
396.86	789.78
396.99	869.44
397.12	829.00
397.26	821.11
397.39	815.44
397.52	1110.44
397.65	926.22
397.79	819.22
397.92	809.33
398.05	875.89
398.18	803.33
398.32	810.67
398.45	848.67
398.58	843.67
398.71	848.22
398.84	779.33
398.98	814.22
399.11	849.67
399.24	840.11
399.37	805.67
399.51	783.11
399.64	827.11
399.77	832.33
399.90	818.78
400.03	815.44
400.17	776.89
400.30	887.44
400.43	849.44
400.56	823.33
400.70	824.78
400.83	799.00
400.96	788.67
401.09	827.67
401.23	829.56
401.36	888.22
401.49	802.67
401.62	841.33
401.75	820.11
401.89	793.78
402.02	813.67
402.15	815.89
402.28	842.00
402.41	832.33
402.55	799.89
402.68	807.11
402.81	890.22
402.94	866.89
403.08	795.78
403.21	779.11
403.34	863.56
403.47	860.78
403.60	809.44
403.74	845.89
403.87	865.78
404.00	800.67
404.13	794.11
404.26	775.00
404.40	795.44
404.53	842.33
404.66	814.67
404.79	779.67
404.93	864.11
405.06	835.56
405.19	770.67
405.32	829.22
405.45	853.00
405.59	862.22
405.72	823.33
405.85	795.89
405.98	992.11
406.11	791.89
406.25	793.67
406.38	805.00
406.51	846.78
406.64	823.44
406.77	778.78
406.91	775.11
407.04	842.78
407.17	813.00
407.30	844.33
407.43	815.00
407.57	898.00
407.70	879.44
407.83	788.56
407.96	820.56
408.09	785.89
408.23	908.78
408.36	817.22
408.49	813.11
408.62	940.11
408.75	838.67
408.89	793.89
409.02	838.89
409.15	822.78
409.28	908.56
409.41	843.78
409.55	796.11
409.68	944.33
409.81	844.78
409.94	797.00
410.07	825.33
410.20	832.44
410.34	811.22
410.47	820.33
410.60	832.33
410.73	851.67
410.86	796.33
411.00	820.11
411.13	791.67
411.26	829.67
411.39	832.89
411.52	843.56
411.66	808.89
411.79	809.33
411.92	794.22
412.05	810.89
412.18	808.22
412.31	847.00
412.45	869.67
412.58	860.11
412.71	783.78
412.84	845.56
412.97	902.44
413.11	826.44
413.24	842.44
413.37	867.33
413.50	928.00
413.63	830.44
413.76	808.00
413.90	857.44
414.03	799.56
414.16	805.44
414.29	839.22
414.42	823.44
414.56	932.67
414.69	806.78
414.82	818.67
414.95	822.11
415.08	843.44
415.21	819.67
415.35	840.56
415.48	755.00
415.61	867.33
415.74	868.56
415.87	776.44
416.00	840.11
416.14	950.00
416.27	830.00
416.40	801.89
416.53	823.89
416.66	854.89
416.79	829.78
416.93	792.56
417.06	841.56
417.19	825.67
417.32	811.44
417.45	801.78
417.58	780.11
417.72	874.67
417.85	804.33
417.98	823.56
418.11	862.56
418.24	801.22
418.37	808.78
418.51	825.67
418.64	836.78
418.77	907.89
418.90	838.00
419.03	789.33
419.16	842.78
419.29	875.67
419.43	807.22
419.56	791.78
419.69	933.89
419.82	877.11
419.95	822.11
420.08	865.33
420.22	898.67
420.35	950.22
420.48	866.78
420.61	813.89
420.74	787.44
420.87	865.11
421.00	786.00
421.14	812.67
421.27	868.22
421.40	908.78
421.53	841.11
421.66	827.89
421.79	817.22
421.93	828.33
422.06	820.22
422.19	798.44
422.32	875.00
422.45	876.00
422.58	840.00
422.71	812.22
422.85	874.89
422.98	870.44
423.11	780.67
423.24	763.89
423.37	795.00
423.50	802.67
423.63	822.78
423.77	794.56
423.90	796.78
424.03	849.56
424.16	855.67
424.29	818.67
424.42	775.78
424.55	791.44
424.69	792.89
424.82	825.33
424.95	841.22
425.08	797.56
425.21	844.22
425.34	808.22
425.47	833.67
425.60	845.44
425.74	779.22
425.87	809.33
426.00	826.56
426.13	840.78
426.26	794.67
426.39	795.33
426.52	813.67
426.66	896.56
426.79	849.00
426.92	800.22
427.05	926.11
427.18	883.33
427.31	817.44
427.44	818.89
427.57	800.78
427.71	828.67
427.84	787.00
427.97	824.44
428.10	882.33
428.23	839.44
428.36	806.33
428.49	739.44
428.62	960.22
428.76	926.67
428.89	833.67
429.02	781.11
429.15	830.00
429.28	926.89
429.41	808.00
429.54	824.00
429.67	811.11
429.81	856.22
429.94	823.33
430.07	805.78
430.20	871.56
430.33	889.44
430.46	790.44
430.59	793.67
430.72	828.56
430.85	781.44
430.99	818.44
431.12	794.33
431.25	877.89
431.38	903.22
431.51	835.89
431.64	831.78
431.77	913.00
431.90	906.22
432.03	832.11
432.17	795.78
432.30	837.89
432.43	852.00
432.56	825.11
432.69	846.89
432.82	844.44
432.95	886.33
433.08	826.56
433.21	829.00
433.35	818.78
433.48	820.89
433.61	785.11
433.74	816.89
433.87	800.67
434.00	865.11
434.13	802.89
434.26	852.33
434.39	849.56
434.53	867.22
434.66	823.67
434.79	816.78
434.92	813.11
435.05	901.56
435.18	807.44
435.31	849.22
435.44	895.11
435.57	843.89
435.70	821.56
435.84	797.78
435.97	898.22
436.10	941.44
436.23	814.89
436.36	793.56
436.49	816.56
436.62	851.33
436.75	818.67
436.88	847.78
437.01	804.78
437.14	794.78
437.28	770.78
437.41	811.33
437.54	895.00
437.67	860.11
437.80	804.11
437.93	784.78
438.06	951.56
438.19	873.89
438.32	781.78
438.45	798.33
438.58	858.22
438.72	905.33
438.85	869.22
438.98	822.78
439.11	852.33
439.24	906.78
439.37	891.11
439.50	853.44
439.63	888.67
439.76	818.33
439.89	804.56
440.02	812.22
440.15	858.89
440.29	901.11
440.42	826.00
440.55	819.33
440.68	908.56
440.81	955.11
440.94	844.33
441.07	834.78
441.20	929.78
441.33	858.78
441.46	816.89
441.59	810.33
441.72	828.22
441.85	846.89
441.99	870.44
442.12	869.33
442.25	924.78
442.38	861.56
442.51	850.89
442.64	785.56
442.77	840.22
442.90	821.56
443.03	789.22
443.16	812.67
443.29	843.56
443.42	915.00
443.55	820.00
443.68	835.67
443.82	784.78
443.95	819.67
444.08	814.67
444.21	828.33
444.34	805.44
444.47	830.89
444.60	825.56
444.73	841.56
444.86	834.67
444.99	900.89
445.12	851.67
445.25	838.89
445.38	850.33
445.51	881.11
445.64	835.44
445.78	809.78
445.91	779.11
446.04	952.56
446.17	875.44
446.30	785.00
446.43	860.78
446.56	845.56
446.69	801.56
446.82	809.22
446.95	880.33
447.08	880.22
447.21	844.56
447.34	814.56
447.47	886.78
447.60	873.22
447.73	836.67
447.86	870.11
447.99	844.89
448.13	852.22
448.26	870.89
448.39	828.44
448.52	865.56
448.65	881.67
448.78	829.67
448.91	828.56
449.04	863.00
449.17	821.67
449.30	854.67
449.43	844.67
449.56	839.67
449.69	894.89
449.82	831.78
449.95	786.33
450.08	903.11
450.21	873.89
450.34	830.33
450.47	833.11
450.60	875.89
450.73	844.33
450.87	824.44
451.00	842.33
451.13	879.11
451.26	987.67
451.39	820.33
451.52	855.56
451.65	827.78
451.78	825.56
451.91	820.78
452.04	807.78
452.17	929.22
452.30	916.44
452.43	817.78
452.56	823.67
452.69	887.44
452.82	805.33
452.95	867.44
453.08	806.78
453.21	765.44
453.34	885.78
453.47	818.22
453.60	878.78
453.73	941.22
453.86	874.67
453.99	857.33
454.12	849.78
454.25	832.33
454.38	856.00
454.52	803.56
454.65	814.67
454.78	813.33
454.91	786.11
455.04	820.89
455.17	795.89
455.30	811.44
455.43	904.33
455.56	829.00
455.69	797.67
455.82	862.44
455.95	857.67
456.08	794.67
456.21	796.67
456.34	784.11
456.47	771.67
456.60	819.22
456.73	810.33
456.86	835.33
456.99	869.11
457.12	810.00
457.25	818.00
457.38	904.11
457.51	878.44
457.64	848.22
457.77	820.78
457.90	833.00
458.03	818.00
458.16	830.22
458.29	836.44
458.42	831.78
458.55	787.11
458.68	810.44
458.81	827.00
458.94	904.78
459.07	946.11
459.20	795.89
459.33	808.89
459.46	907.33
459.59	934.22
459.72	897.22
459.85	833.89
459.98	919.11
460.11	878.78
460.24	836.22
460.37	799.67
460.50	882.44
460.63	863.56
460.76	833.22
460.89	846.22
461.02	874.33
461.15	878.67
461.28	836.11
461.41	824.11
461.54	915.33
461.67	805.56
461.80	847.56
461.93	886.00
462.06	874.00
462.19	900.00
462.32	823.78
462.45	824.67
462.58	876.22
462.71	834.44
462.84	835.11
462.97	784.44
463.10	842.67
463.23	853.00
463.36	875.44
463.49	849.33
463.62	794.11
463.75	871.22
463.88	825.89
464.01	838.00
464.14	804.78
464.27	934.33
464.40	839.11
464.53	837.11
464.66	876.56
464.79	868.11
464.92	853.56
465.05	811.22
465.18	848.67
465.31	843.78
465.44	842.78
465.57	820.22
465.70	832.44
465.83	952.33
465.96	853.33
466.09	821.33
466.22	889.22
466.35	870.56
466.48	825.00
466.61	828.11
466.74	839.56
466.87	890.22
467.00	878.00
467.13	868.11
467.26	885.89
467.39	796.78
467.52	797.11
467.65	834.67
467.78	920.00
467.91	857.33
468.04	851.56
468.17	822.67
468.30	837.67
468.43	808.89
468.56	820.22
468.69	864.33
468.82	881.11
468.95	811.89
469.08	836.11
469.21	846.22
469.34	891.89
469.47	956.44
469.60	929.22
469.73	862.67
469.86	876.56
469.99	904.78
470.11	822.00
470.24	837.33
470.37	893.00
470.50	854.78
470.63	829.89
470.76	847.11
470.89	884.11
471.02	958.22
471.15	835.22
471.28	842.11
471.41	952.78
471.54	881.33
471.67	840.78
471.80	788.67
471.93	899.22
472.06	878.78
472.19	845.11
472.32	823.33
472.45	968.67
472.58	913.44
472.71	863.11
472.84	842.00
472.97	835.56
473.10	818.44
473.23	897.00
473.36	811.44
473.49	922.00
473.62	907.11
473.74	881.67
473.87	892.56
474.00	830.22
474.13	837.89
474.26	873.11
474.39	886.00
474.52	866.44
474.65	860.33
474.78	864.22
474.91	810.78
475.04	883.67
475.17	987.33
475.30	890.89
475.43	875.11
475.56	924.11
475.69	872.11
475.82	891.11
475.95	830.56
476.08	931.78
476.21	869.67
476.34	903.11
476.46	898.44
476.59	928.78
476.72	854.44
476.85	854.11
476.98	829.11
477.11	920.33
477.24	860.78
477.37	807.33
477.50	852.56
477.63	889.11
477.76	840.78
477.89	799.11
478.02	819.44
478.15	869.56
478.28	858.67
478.41	893.11
478.54	853.22
478.66	918.56
478.79	869.00
478.92	863.22
479.05	862.33
479.18	874.67
479.31	844.44
479.44	847.22
479.57	839.78
479.70	866.78
479.83	886.78
479.96	859.00
480.09	894.44
480.22	1012.11
480.35	994.67
480.48	917.67
480.60	876.33
480.73	853.67
480.86	904.56
480.99	859.78
481.12	870.44
481.25	879.78
481.38	942.56
481.51	872.22
481.64	874.67
481.77	906.33
481.90	872.11
482.03	873.56
482.16	863.78
482.29	938.89
482.41	890.56
482.54	907.11
482.67	857.11
482.80	891.78
482.93	930.22
483.06	856.22
483.19	938.00
483.32	909.78
483.45	891.00
483.58	886.33
483.71	909.56
483.84	925.56
483.97	911.33
484.09	885.22
484.22	867.67
484.35	863.00
484.48	834.67
484.61	860.78
484.74	868.78
484.87	903.00
485.00	849.11
485.13	903.22
485.26	848.22
485.39	913.22
485.52	879.44
485.64	951.33
485.77	920.33
485.90	933.00
486.03	851.56
486.16	901.22
486.29	857.22
486.42	893.67
486.55	901.56
486.68	872.11
486.81	911.89
486.94	906.78
487.06	873.11
487.19	918.67
487.32	917.44
487.45	901.44
487.58	876.56
487.71	891.44
487.84	851.44
487.97	930.67
488.10	945.78
488.23	881.22
488.35	845.33
488.48	885.67
488.61	857.33
488.74	883.11
488.87	870.22
489.00	896.56
489.13	994.11
489.26	930.78
489.39	928.33
489.52	938.44
489.64	930.11
489.77	914.00
489.90	902.67
490.03	889.22
490.16	878.00
490.29	879.78
490.42	879.11
490.55	905.56
490.68	869.67
490.81	882.56
490.93	847.89
491.06	968.00
491.19	921.56
491.32	912.33
491.45	927.00
491.58	858.11
491.71	903.44
491.84	883.67
491.97	882.78
492.09	970.22
492.22	932.56
492.35	912.44
492.48	936.33
492.61	923.33
492.74	906.78
492.87	921.00
493.00	906.44
493.12	884.56
493.25	907.89
493.38	899.78
493.51	872.44
493.64	865.11
493.77	899.89
493.90	924.11
494.03	934.33
494.16	971.89
494.28	977.11
494.41	904.33
494.54	904.67
494.67	1026.22
494.80	986.89
494.93	915.00
495.06	931.44
495.19	932.67
495.31	911.89
495.44	897.44
495.57	882.33
495.70	940.22
495.83	910.22
495.96	871.67
496.09	916.33
496.22	980.67
496.34	1008.56
496.47	907.89
496.60	930.89
496.73	965.67
496.86	959.89
496.99	892.56
497.12	920.22
497.24	859.67
497.37	930.22
497.50	905.33
497.63	891.89
497.76	917.56
497.89	976.78
498.02	950.00
498.15	843.33
498.27	920.56
498.40	976.44
498.53	984.33
498.66	933.00
498.79	963.00
498.92	877.78
499.05	930.11
499.17	925.00
499.30	962.44
499.43	1016.44
499.56	944.78
499.69	874.89
499.82	939.22
499.95	909.44
500.07	895.33
500.20	921.11
500.33	966.11
500.46	1061.33
500.59	930.67
500.72	932.56
500.85	978.44
500.97	971.67
501.10	966.22
501.23	891.67
501.36	938.00
501.49	999.33
501.62	947.11
501.75	928.78
501.87	978.44
502.00	880.00
502.13	942.67
502.26	944.78
502.39	914.44
502.52	921.67
502.64	872.22
502.77	905.11
502.90	964.78
503.03	931.00
503.16	908.89
503.29	908.67
503.42	986.56
503.54	938.78
503.67	928.89
503.80	940.89
503.93	981.44
504.06	897.44
504.19	929.22
504.31	980.78
504.44	945.67
504.57	956.22
504.70	943.67
504.83	888.44
504.96	949.89
505.08	927.11
505.21	939.33
505.34	1035.67
505.47	994.78
505.60	967.44
505.73	986.44
505.85	974.56
505.98	1070.11
506.11	944.11
506.24	913.22
506.37	905.56
506.50	948.67
506.62	978.78
506.75	923.00
506.88	910.67
507.01	951.00
507.14	888.56
507.27	929.78
507.39	906.89
507.52	913.33
507.65	925.00
507.78	957.44
507.91	915.00
508.04	1001.56
508.16	1001.67
508.29	960.44
508.42	930.56
508.55	911.56
508.68	916.11
508.81	987.22
508.93	926.00
509.06	927.56
509.19	977.00
509.32	976.44
509.45	954.00
509.57	969.11
509.70	920.33
509.83	944.22
509.96	895.56
510.09	951.22
510.22	937.67
510.34	947.78
510.47	944.56
510.60	1049.67
510.73	967.11
510.86	974.89
510.98	936.22
511.11	933.44
511.24	992.33
511.37	980.22
511.50	937.22
511.63	965.89
511.75	962.00
511.88	955.00
512.01	978.78
512.14	961.22
512.27	965.44
512.39	949.56
512.52	939.67
512.65	958.44
512.78	928.22
512.91	954.11
513.03	953.44
513.16	994.56
513.29	963.00
513.42	941.56
513.55	908.67
513.67	971.44
513.80	908.11
513.93	939.11
514.06	936.67
514.19	967.22
514.31	972.44
514.44	998.22
514.57	949.33
514.70	965.56
514.83	1012.78
514.95	932.78
515.08	967.78
515.21	983.89
515.34	966.33
515.47	957.33
515.59	926.44
515.72	980.33
515.85	981.00
515.98	1006.11
516.11	958.89
516.23	997.56
516.36	1033.56
516.49	972.44
516.62	967.89
516.75	1026.00
516.87	1024.33
517.00	937.78
517.13	985.44
517.26	1017.11
517.39	989.00
517.51	902.44
517.64	967.33
517.77	1037.89
517.90	931.67
518.02	956.56
518.15	929.78
518.28	887.00
518.41	957.22
518.54	967.11
518.66	973.11
518.79	923.33
518.92	942.56
519.05	932.33
519.18	959.44
519.30	995.56
519.43	926.89
519.56	937.22
519.69	949.11
519.81	1011.67
519.94	952.89
520.07	899.78
520.20	941.56
520.33	978.44
520.45	1030.33
520.58	982.33
520.71	988.67
520.84	1019.89
520.96	992.22
521.09	971.11
521.22	945.56
521.35	1000.56
521.48	997.67
521.60	946.89
521.73	972.56
521.86	1027.89
521.99	1059.00
522.11	986.67
522.24	969.22
522.37	997.22
522.50	982.44
522.62	1027.33
522.75	919.33
522.88	982.22
523.01	954.11
523.14	992.89
523.26	989.67
523.39	1040.89
523.52	953.44
523.65	1062.89
523.77	1007.56
523.90	977.56
524.03	971.44
524.16	963.56
524.28	959.33
524.41	965.89
524.54	964.89
524.67	933.22
524.79	963.22
524.92	1000.22
525.05	1052.56
525.18	944.56
525.31	1012.33
525.43	946.78
525.56	1094.00
525.69	961.22
525.82	917.00
525.94	1020.89
526.07	1020.78
526.20	1003.89
526.33	1019.00
526.45	1099.11
526.58	1078.11
526.71	999.67
526.84	971.78
526.96	991.78
527.09	962.78
527.22	969.67
527.35	978.22
527.47	935.33
527.60	1049.44
527.73	951.22
527.86	1014.11
527.98	1000.78
528.11	1009.33
528.24	954.33
528.37	977.00
528.49	941.78
528.62	981.67
528.75	1014.44
528.88	953.33
529.00	1010.11
529.13	1033.11
529.26	987.89
529.39	1023.89
529.51	1118.11
529.64	1085.78
529.77	961.67
529.90	969.00
530.02	975.78
530.15	960.44
530.28	920.33
530.40	951.78
530.53	987.11
530.66	1018.78
530.79	976.00
530.91	984.67
531.04	966.89
531.17	984.11
531.30	983.33
531.42	982.56
531.55	994.89
531.68	1056.67
531.81	969.56
531.93	982.22
532.06	1004.33
532.19	949.22
532.31	985.67
532.44	977.67
532.57	1018.44
532.70	969.00
532.82	1005.22
532.95	1016.33
533.08	1051.22
533.21	1022.89
533.33	964.89
533.46	972.11
533.59	980.11
533.71	1095.44
533.84	1009.33
533.97	980.67
534.10	974.56
534.22	957.56
534.35	991.00
534.48	1001.00
534.61	1027.44
534.73	929.22
534.86	963.11
534.99	1001.89
535.11	1044.89
535.24	1009.67
535.37	970.56
535.50	956.33
535.62	968.11
535.75	1061.56
535.88	1000.67
536.00	968.67
536.13	974.33
536.26	985.22
536.39	967.89
536.51	950.11
536.64	1015.67
536.77	989.33
536.89	989.22
537.02	1002.00
537.15	1015.44
537.28	1002.67
537.40	1013.00
537.53	973.56
537.66	1044.44
537.78	1000.56
537.91	962.11
538.04	974.44
538.17	1033.00
538.29	1006.89
538.42	1076.00
538.55	1054.89
538.67	1035.11
538.80	980.89
538.93	1017.78
539.05	1003.11
539.18	1066.78
539.31	1034.11
539.44	1016.56
539.56	933.89
539.69	993.89
539.82	985.56
539.94	993.56
540.07	980.44
540.20	1069.11
540.32	979.78
540.45	997.44
540.58	993.33
540.71	1044.89
540.83	955.56
540.96	983.33
541.09	994.44
541.21	1082.11
541.34	1072.11
541.47	977.22
541.59	1007.89
541.72	1087.56
541.85	1158.33
541.98	1064.44
542.10	1002.00
542.23	1031.11
542.36	1129.56
542.48	1023.22
542.61	1007.89
542.74	970.56
542.86	988.67
542.99	1004.67
543.12	986.78
543.24	1019.00
543.37	958.00
543.50	996.44
543.62	977.67
543.75	996.56
543.88	997.33
544.01	1022.44
544.13	1035.22
544.26	1039.22
544.39	990.89
544.51	992.00
544.64	973.00
544.77	1031.56
544.89	992.67
545.02	1010.67
545.15	986.22
545.27	1093.78
545.40	1074.11
545.53	1044.11
545.65	1037.22
545.78	944.00
545.91	977.89
546.03	996.11
546.16	1008.67
546.29	995.78
546.41	976.22
546.54	1004.00
546.67	986.33
546.79	1045.56
546.92	1086.78
547.05	964.11
547.17	1015.22
547.30	990.33
547.43	1046.56
547.56	975.11
547.68	1008.22
547.81	967.56
547.94	1038.11
548.06	1002.67
548.19	977.33
548.32	1076.11
548.44	1028.44
548.57	1035.67
548.70	1053.44
548.82	1063.56
548.95	1055.22
549.08	1014.11
549.20	1000.33
549.33	1107.11
549.45	1027.33
549.58	1008.89
549.71	977.56
549.83	1067.56
549.96	978.44
550.09	1022.67
550.21	995.67
550.34	1032.22
550.47	1005.44
550.59	1011.33
550.72	950.89
550.85	1024.00
550.97	1083.00
551.10	1002.44
551.23	1005.67
551.35	1088.22
551.48	1043.78
551.61	1015.00
551.73	1001.11
551.86	1091.22
551.99	1091.00
552.11	1030.11
552.24	1057.33
552.37	1032.44
552.49	1003.33
552.62	1009.44
552.75	1054.78
552.87	1002.78
553.00	1006.89
553.12	1032.00
553.25	1009.00
553.38	1052.44
553.50	1076.33
553.63	1016.22
553.76	969.22
553.88	1030.67
554.01	1018.00
554.14	1021.33
554.26	1056.56
554.39	1104.67
554.52	1026.11
554.64	1029.22
554.77	1009.89
554.89	1061.11
555.02	1074.22
555.15	1050.44
555.27	1038.78
555.40	1033.22
555.53	1083.67
555.65	1019.78
555.78	995.44
555.91	1069.11
556.03	1106.00
556.16	999.67
556.29	1034.89
556.41	1100.11
556.54	1093.56
556.66	1026.78
556.79	1011.11
556.92	1039.56
557.04	1056.44
557.17	1019.78
557.30	1008.78
557.42	1023.78
557.55	1025.78
557.67	1050.00
557.80	1031.00
557.93	1039.67
558.05	1038.67
558.18	1004.33
558.31	1042.33
558.43	1079.00
558.56	1057.89
558.68	1033.22
558.81	1004.56
558.94	1032.11
559.06	1146.89
559.19	1017.11
559.32	1024.78
559.44	997.00
559.57	1038.89
559.69	1011.22
559.82	1013.56
559.95	1022.44
560.07	1024.11
560.20	963.33
560.33	1037.44
560.45	1049.11
560.58	990.67
560.70	1037.56
560.83	1001.78
560.96	1027.33
561.08	1033.11
561.21	1056.33
561.33	1007.89
561.46	993.00
561.59	1086.22
561.71	1028.00
561.84	1055.11
561.97	1009.00
562.09	1065.78
562.22	1015.67
562.34	1006.56
562.47	1075.22
562.60	1055.67
562.72	1040.78
562.85	1039.78
562.97	1039.22
563.10	1030.00
563.23	1006.22
563.35	1012.11
563.48	1053.22
563.60	1044.78
563.73	1071.22
563.86	992.22
563.98	1012.44
564.11	1037.78
564.23	1037.00
564.36	1102.33
564.49	1051.44
564.61	1107.11
564.74	1054.78
564.86	1022.11
564.99	1098.78
565.12	1082.00
565.24	1100.11
565.37	1093.33
565.49	1087.11
565.62	1119.11
565.75	1080.67
565.87	1020.78
566.00	1189.56
566.12	1111.67
566.25	1057.33
566.38	1083.00
566.50	1059.67
566.63	1092.78
566.75	1044.56
566.88	1027.22
567.01	1019.22
567.13	1041.11
567.26	1048.89
567.38	1029.56
567.51	1099.44
567.64	1026.89
567.76	1076.22
567.89	1068.11
568.01	1022.44
568.14	1009.11
568.26	1050.89
568.39	1059.56
568.52	1046.22
568.64	1087.44
568.77	1044.00
568.89	1045.56
569.02	1033.67
569.15	1055.44
569.27	1036.89
569.40	1067.44
569.52	1082.11
569.65	1044.89
569.77	1037.44
569.90	1006.33
570.03	999.78
570.15	1117.44
570.28	1052.22
570.40	1049.44
570.53	1051.33
570.66	1120.11
570.78	1096.22
570.91	1066.00
571.03	1021.22
571.16	1058.00
571.28	1008.78
571.41	999.00
571.54	1003.44
571.66	998.78
571.79	1024.56
571.91	1032.78
572.04	1011.44
572.16	1061.11
572.29	1088.67
572.42	1036.67
572.54	1069.00
572.67	1028.78
572.79	1078.67
572.92	1054.67
573.04	1081.00
573.17	1107.67
573.29	1065.67
573.42	1050.56
573.55	1095.00
573.67	1083.89
573.80	1054.67
573.92	1024.44
574.05	1063.00
574.17	1117.22
574.30	1061.22
574.43	1042.00
574.55	1041.22
574.68	1067.78
574.80	1035.22
574.93	1051.11
575.05	1008.56
575.18	1042.89
575.30	1051.67
575.43	1085.56
575.56	1110.11
575.68	1080.78
575.81	1046.44
575.93	1026.89
576.06	1080.56
576.18	1099.11
576.31	1057.33
576.43	1034.89
576.56	1150.56
576.69	1119.67
576.81	1073.33
576.94	1047.56
577.06	1058.78
577.19	1095.78
577.31	1068.78
577.44	1090.22
577.56	1104.33
577.69	1076.11
577.82	1064.78
577.94	1034.89
578.07	1016.00
578.19	1087.78
578.32	1089.67
578.44	1042.89
578.57	1053.33
578.69	1104.22
578.82	1070.00
578.94	1102.56
579.07	1117.78
579.19	1100.67
579.32	1082.78
579.45	1077.00
579.57	1056.33
579.70	1036.22
579.82	1082.33
579.95	1049.89
580.07	1129.56
580.20	1062.56
580.32	1073.78
580.45	1102.44
580.57	1104.00
580.70	1069.22
580.82	1084.33
580.95	1102.67
581.08	1033.78
581.20	1115.67
581.33	1072.78
581.45	1090.89
581.58	1076.78
581.70	1091.44
581.83	997.89
581.95	1084.33
582.08	1100.44
582.20	1069.00
582.33	1066.78
582.45	1048.89
582.58	1064.89
582.70	1094.22
582.83	1045.56
582.95	1067.89
583.08	1113.89
583.21	1117.89
583.33	1083.33
583.46	1056.89
583.58	1035.33
583.71	1099.00
583.83	1091.33
583.96	1087.33
584.08	1102.22
584.21	1106.89
584.33	1104.78
584.46	1065.67
584.58	1030.33
584.71	1112.22
584.83	1105.78
584.96	1074.11
585.08	1053.33
585.21	1170.67
585.33	1133.78
585.46	1105.33
585.58	1110.33
585.71	1058.44
585.83	1078.00
585.96	1116.56
586.08	1097.22
586.21	1100.44
586.33	1111.56
586.46	1035.00
586.59	1108.11
586.71	1055.56
586.84	1102.00
586.96	1080.89
587.09	1024.44
587.21	1049.89
587.34	1112.11
587.46	1048.22
587.59	1035.56
587.71	1069.00
587.84	1058.78
587.96	1018.89
588.09	1032.78
588.21	1099.78
588.34	1069.33
588.46	1091.89
588.59	1059.89
588.71	1093.33
588.84	1090.44
588.96	1075.00
589.09	1169.44
589.21	1080.11
589.34	1052.33
589.46	1075.00
589.59	1092.67
589.71	1136.33
589.84	1030.22
589.96	1047.22
590.09	1075.11
590.21	1111.22
590.34	1093.11
590.46	1086.67
590.59	1056.89
590.71	1065.22
590.84	1122.33
590.96	1050.89
591.09	1099.33
591.21	1094.11
591.34	1070.44
591.46	1066.78
591.59	1132.89
591.71	1110.11
591.83	1074.33
591.96	1029.89
592.08	1066.11
592.21	1118.67
592.33	1083.22
592.46	1066.33
592.58	1098.89
592.71	1119.89
592.83	1159.11
592.96	1111.67
593.08	1139.11
593.21	1051.00
593.33	1046.89
593.46	1076.67
593.58	1073.33
593.71	1126.22
593.83	1128.56
593.96	1052.67
594.08	1196.89
594.21	1091.67
594.33	1070.56
594.46	1053.78
594.58	1037.11
594.71	1019.00
594.83	1092.78
594.96	1072.33
595.08	1240.00
595.20	1121.78
595.33	1093.11
595.45	1057.00
595.58	1172.56
595.70	1106.89
595.83	1066.11
595.95	1084.78
596.08	1100.00
596.20	1039.33
596.33	1038.33
596.45	1085.33
596.58	1047.22
596.70	1047.11
596.83	1069.00
596.95	1059.44
597.08	1095.89
597.20	1053.22
597.32	1064.56
597.45	1096.11
597.57	1075.78
597.70	1124.33
597.82	1071.33
597.95	1083.33
598.07	1082.67
598.20	1092.11
598.32	1081.44
598.45	1072.67
598.57	1124.22
598.70	1149.00
598.82	1080.11
598.94	1071.00
599.07	1131.67
599.19	1088.78
599.32	1069.00
599.44	1001.33
599.57	1126.67
599.69	1103.22
599.82	1082.67
599.94	1050.22
600.07	1134.11
600.19	1112.56
600.31	1065.89
600.44	1123.22
600.56	1200.11
600.69	1181.67
600.81	1075.33
600.94	1079.44
601.06	1097.78
601.19	1115.89
601.31	1138.44
601.44	1041.22
601.56	1145.89
601.68	1125.78
601.81	1108.11
601.93	1097.44
602.06	1117.00
602.18	1063.00
602.31	1087.67
602.43	1145.33
602.56	1121.00
602.68	1093.11
602.80	1089.56
602.93	1106.00
603.05	1072.89
603.18	1098.11
603.30	1059.89
603.43	1060.22
603.55	1088.78
603.68	1111.78
603.80	1102.00
603.92	1090.11
604.05	1072.33
604.17	1072.56
604.30	1056.44
604.42	1074.11
604.55	1080.78
604.67	1121.67
604.79	1069.11
604.92	1078.11
605.04	1079.67
605.17	1073.33
605.29	1072.56
605.42	1067.11
605.54	1157.67
605.66	1103.78
605.79	1106.89
605.91	1082.78
606.04	1092.22
606.16	1068.89
606.29	1102.56
606.41	1059.67
606.53	1076.78
606.66	1039.78
606.78	1084.44
606.91	1082.11
607.03	1074.67
607.16	1069.78
607.28	1056.11
607.40	1096.78
607.53	1112.78
607.65	1052.00
607.78	1064.00
607.90	1105.00
608.03	1202.89
608.15	1104.22
608.27	1115.89
608.40	1056.44
608.52	1113.67
608.65	1085.11
608.77	1130.56
608.89	1093.33
609.02	1164.78
609.14	1178.89
609.27	1117.00
609.39	1137.89
609.52	1077.89
609.64	1031.11
609.76	1069.56
609.89	1082.67
610.01	1146.56
610.14	1126.11
610.26	1088.89
610.38	1063.78
610.51	1140.44
610.63	1082.33
610.76	1064.00
610.88	1118.67
611.01	1160.67
611.13	1197.56
611.25	1136.44
611.38	1058.67
611.50	1096.22
611.63	1125.67
611.75	1103.44
611.87	1110.78
612.00	1079.33
612.12	1142.56
612.25	1088.56
612.37	1065.11
612.49	1161.78
612.62	1150.11
612.74	1164.22
612.87	1101.11
612.99	1101.56
613.11	1046.67
613.24	1088.22
613.36	1081.56
613.49	1109.11
613.61	1114.11
613.73	1093.11
613.86	1128.89
613.98	1075.33
614.11	1129.00
614.23	1140.56
614.35	1143.56
614.48	1155.67
614.60	1114.00
614.72	1100.44
614.85	1115.89
614.97	1112.00
615.10	1112.56
615.22	1089.00
615.34	1113.11
615.47	1162.89
615.59	1085.78
615.72	1113.44
615.84	1118.56
615.96	1081.11
616.09	1192.67
616.21	1101.67
616.34	1085.33
616.46	1102.44
616.58	1133.44
616.71	1134.33
616.83	1148.11
616.95	1137.11
617.08	1133.67
617.20	1106.89
617.33	1068.22
617.45	1093.67
617.57	1126.00
617.70	1115.56
617.82	1086.56
617.95	1111.56
618.07	1168.78
618.19	1126.44
618.32	1121.33
618.44	1093.44
618.56	1070.89
618.69	1043.11
618.81	1055.11
618.94	1144.22
619.06	1094.44
619.18	1102.22
619.31	1062.44
619.43	1078.56
619.55	1128.11
619.68	1125.56
619.80	1075.33
619.92	1128.22
620.05	1234.00
620.17	1164.33
620.30	1115.56
620.42	1131.56
620.54	1158.67
620.67	1091.78
620.79	1116.00
620.91	1132.22
621.04	1174.22
621.16	1092.33
621.29	1078.44
621.41	1057.00
621.53	1092.44
621.66	1103.44
621.78	1085.67
621.90	1148.00
622.03	1208.89
622.15	1116.00
622.27	1109.56
622.40	1123.33
622.52	1096.11
622.64	1095.11
622.77	1067.56
622.89	1128.78
623.02	1150.11
623.14	1124.78
623.26	1141.11
623.39	1139.22
623.51	1166.22
623.63	1103.56
623.76	1086.00
623.88	1174.33
624.00	1112.89
624.13	1083.33
624.25	1084.44
624.37	1078.78
624.50	1149.11
624.62	1138.33
624.75	1071.56
624.87	1071.44
624.99	1137.89
625.12	1091.33
625.24	1103.44
625.36	1187.11
625.49	1151.44
625.61	1128.67
625.73	1122.56
625.86	1157.11
625.98	1118.56
626.10	1093.56
626.23	1067.67
626.35	1130.11
626.47	1104.89
626.60	1083.33
626.72	1088.11
626.84	1095.78
626.97	1136.44
627.09	1114.56
627.21	1108.33
627.34	1234.33
627.46	1210.33
627.58	1117.78
627.71	1132.67
627.83	1153.00
627.95	1075.78
628.08	1115.78
628.20	1145.33
628.32	1058.56
628.45	1036.56
628.57	1057.44
628.69	1082.89
628.82	1134.22
628.94	1170.44
629.06	1111.89
629.19	1096.78
629.31	1154.89
629.43	1077.56
629.56	1126.89
629.68	1116.22
629.80	1159.78
629.93	1083.11
630.05	1092.44
630.17	1083.78
630.30	1110.00
630.42	1085.44
630.54	1139.11
630.67	1117.67
630.79	1095.22
630.91	1233.11
631.04	1135.22
631.16	1131.67
631.28	1144.67
631.41	1096.33
631.53	1079.33
631.65	1121.44
631.78	1141.44
631.90	1115.33
632.02	1123.22
632.14	1041.56
632.27	1184.00
632.39	1119.89
632.51	1093.67
632.64	1162.44
632.76	1124.22
632.88	1101.78
633.01	1130.56
633.13	1106.89
633.25	1127.44
633.38	1232.33
633.50	1068.56
633.62	1063.11
633.75	1064.44
633.87	1048.78
633.99	1130.78
634.11	1078.00
634.24	1105.00
634.36	1108.67
634.48	1109.22
634.61	1105.56
634.73	1149.89
634.85	1103.22
634.98	1097.22
635.10	1108.89
635.22	1118.89
635.35	1237.22
635.47	1138.44
635.59	1118.89
635.71	1143.67
635.84	1171.78
635.96	1113.33
636.08	1155.44
636.21	1096.67
636.33	1133.67
636.45	1124.22
636.58	1097.67
636.70	1073.56
636.82	1151.67
636.94	1101.67
637.07	1068.67
637.19	1152.56
637.31	1149.44
637.44	1146.11
637.56	1080.00
637.68	1146.67
637.81	1144.22
637.93	1127.22
638.05	1085.00
638.17	1181.56
638.30	1243.22
638.42	1127.22
638.54	1103.56
638.67	1117.33
638.79	1129.67
638.91	1096.44
639.03	1114.44
639.16	1113.22
639.28	1127.00
639.40	1119.89
639.53	1101.22
639.65	1163.67
639.77	1117.00
639.89	1129.33
640.02	1125.67
640.14	1132.89
640.26	1088.44
640.39	1151.67
640.51	1096.56
640.63	1141.00
640.75	1176.00
640.88	1131.33
641.00	1106.44
641.12	1099.11
641.24	1202.44
641.37	1120.33
641.49	1093.00
641.61	1231.11
641.74	1100.44
641.86	1144.22
641.98	1096.44
642.10	1144.78
642.23	1156.33
642.35	1109.78
642.47	1146.33
642.60	1143.00
642.72	1164.22
642.84	1071.89
642.96	1088.67
643.09	1092.11
643.21	1088.78
643.33	1100.67
643.45	1096.33
643.58	1176.78
643.70	1206.78
643.82	1115.56
643.94	1120.89
644.07	1146.33
644.19	1149.00
644.31	1140.89
644.44	1141.11
644.56	1120.56
644.68	1089.56
644.80	1089.67
644.93	1090.22
645.05	1105.00
645.17	1153.33
645.29	1145.33
645.42	1148.11
645.54	1136.56
645.66	1165.44
645.78	1128.00
645.91	1114.33
646.03	1157.56
646.15	1204.11
646.27	1114.78
646.40	1144.00
646.52	1167.11
646.64	1183.56
646.76	1132.56
646.89	1084.33
647.01	1172.67
647.13	1160.89
647.25	1168.33
647.38	1124.78
647.50	1109.56
647.62	1178.56
647.74	1092.44
647.87	1097.89
647.99	1143.11
648.11	1159.00
648.23	1134.78
648.36	1096.33
648.48	1199.00
648.60	1143.89
648.72	1118.33
648.85	1095.89
648.97	1182.44
649.09	1158.11
649.21	1121.22
649.34	1162.44
649.46	1167.22
649.58	1154.56
649.70	1172.11
649.83	1121.11
649.95	1162.89
650.07	1167.33
650.19	1176.89
650.32	1145.89
650.44	1196.44
650.56	1162.89
650.68	1126.56
650.81	1131.89
650.93	1135.89
651.05	1211.44
651.17	1122.33
651.29	1161.11
651.42	1137.33
651.54	1176.78
651.66	1116.33
651.78	1113.11
651.91	1172.56
652.03	1256.33
652.15	1172.44
652.27	1119.78
652.40	1148.33
652.52	1134.22
652.64	1159.89
652.76	1129.56
652.88	1247.00
653.01	1160.44
653.13	1111.56
653.25	1086.11
653.37	1176.56
653.50	1190.33
653.62	1170.78
653.74	1097.89
653.86	1195.11
653.98	1182.00
654.11	1117.33
654.23	1138.33
654.35	1137.11
654.47	1273.78
654.60	1134.78
654.72	1146.22
654.84	1118.11
654.96	1189.78
655.08	1133.00
655.21	1164.44
655.33	1148.00
655.45	1202.33
655.57	1162.78
655.70	1157.89
655.82	1201.33
655.94	1237.22
656.06	1182.33
656.18	1112.89
656.31	1208.44
656.43	1185.44
656.55	1133.89
656.67	1148.33
656.79	1155.56
656.92	1213.78
657.04	1172.56
657.16	1137.78
657.28	1275.78
657.40	1161.78
657.53	1182.33
657.65	1142.33
657.77	1213.33
657.89	1204.33
658.01	1146.56
658.14	1123.67
658.26	1192.89
658.38	1153.33
658.50	1114.89
658.62	1128.56
658.75	1275.22
658.87	1199.33
658.99	1180.44
659.11	1123.44
659.23	1206.22
659.36	1267.44
659.48	1206.56
659.60	1181.56
659.72	1173.56
659.84	1165.22
659.97	1190.44
660.09	1197.67
660.21	1275.00
660.33	1214.67
660.45	1111.22
660.58	1086.44
660.70	1137.44
660.82	1157.00
660.94	1119.56
661.06	1166.67
661.19	1229.33
661.31	1202.11
661.43	1172.11
661.55	1158.56
661.67	1197.78
661.80	1236.11
661.92	1164.00
662.04	1179.78
662.16	1180.78
662.28	1227.67
662.40	1166.33
662.53	1174.11
662.65	1195.22
662.77	1145.56
662.89	1181.89
663.01	1151.11
663.14	1170.11
663.26	1198.00
663.38	1181.11
663.50	1131.67
663.62	1152.33
663.74	1176.67
663.87	1146.67
663.99	1185.78
664.11	1218.56
664.23	1291.11
664.35	1162.67
664.48	1155.22
664.60	1168.22
664.72	1162.89
664.84	1129.44
664.96	1161.89
665.08	1227.56
665.21	1196.44
665.33	1208.89
665.45	1121.78
665.57	1173.44
665.69	1256.44
665.81	1184.22
665.94	1145.11
666.06	1151.00
666.18	1199.56
666.30	1164.89
666.42	1152.11
666.54	1188.67
666.67	1203.00
666.79	1147.00
666.91	1209.67
667.03	1174.11
667.15	1140.78
667.27	1161.67
667.40	1136.78
667.52	1161.22
667.64	1219.56
667.76	1158.67
667.88	1138.33
668.00	1218.22
668.13	1222.22
668.25	1150.78
668.37	1147.78
668.49	1157.78
668.61	1227.33
668.73	1178.11
668.85	1186.78
668.98	1197.11
669.10	1194.44
669.22	1166.22
669.34	1167.67
669.46	1222.56
669.58	1174.67
669.71	1191.00
669.83	1179.78
669.95	1169.11
670.07	1192.22
670.19	1163.44
670.31	1175.89
670.43	1168.78
670.56	1207.44
670.68	1234.22
670.80	1205.44
670.92	1191.11
671.04	1255.11
671.16	1174.67
671.28	1166.56
671.41	1175.89
671.53	1224.44
671.65	1175.78
671.77	1180.78
671.89	1326.00
672.01	1287.44
672.13	1225.89
672.26	1155.44
672.38	1197.00
672.50	1160.67
672.62	1186.22
672.74	1200.78
672.86	1192.56
672.98	1204.00
673.11	1197.56
673.23	1199.22
673.35	1254.33
673.47	1187.56
673.59	1187.89
673.71	1153.00
673.83	1220.67
673.96	1297.00
674.08	1192.22
674.20	1151.11
674.32	1187.89
674.44	1196.33
674.56	1213.11
674.68	1207.44
674.80	1231.89
674.93	1209.78
675.05	1187.11
675.17	1195.67
675.29	1236.56
675.41	1240.33
675.53	1192.22
675.65	1192.22
675.77	1187.89
675.90	1247.22
676.02	1169.11
676.14	1164.56
676.26	1272.89
676.38	1301.11
676.50	1207.67
676.62	1220.56
676.74	1167.67
676.87	1180.67
676.99	1217.67
677.11	1239.33
677.23	1218.22
677.35	1228.67
677.47	1153.78
677.59	1172.89
677.71	1222.44
677.83	1232.56
677.96	1211.78
678.08	1206.44
678.20	1192.56
678.32	1169.22
678.44	1205.89
678.56	1191.78
678.68	1337.56
678.80	1238.56
678.93	1196.67
679.05	1209.00
679.17	1206.22
679.29	1260.44
679.41	1205.44
679.53	1175.33
679.65	1183.33
679.77	1216.56
679.89	1200.11
680.01	1227.67
680.14	1234.22
680.26	1136.11
680.38	1191.22
680.50	1235.78
680.62	1282.00
680.74	1229.78
680.86	1199.67
680.98	1213.22
681.10	1236.00
681.22	1309.11
681.35	1188.78
681.47	1192.11
681.59	1179.22
681.71	1295.67
681.83	1206.33
681.95	1180.56
682.07	1275.56
682.19	1225.67
682.31	1191.67
682.43	1172.44
682.56	1245.89
682.68	1168.67
682.80	1175.56
682.92	1226.78
683.04	1223.11
683.16	1203.44
683.28	1178.78
683.40	1238.89
683.52	1211.22
683.64	1241.22
683.76	1182.56
683.89	1190.78
684.01	1209.00
684.13	1274.33
684.25	1220.00
684.37	1219.11
684.49	1252.44
684.61	1206.00
684.73	1221.33
684.85	1208.44
684.97	1187.56
685.09	1282.89
685.21	1182.11
685.34	1216.67
685.46	1341.78
685.58	1245.56
685.70	1230.78
685.82	1262.78
685.94	1193.67
686.06	1181.00
686.18	1177.00
686.30	1210.00
686.42	1173.00
686.54	1250.67
686.66	1183.11
686.79	1284.33
686.91	1246.33
687.03	1322.78
687.15	1245.33
687.27	1221.89
687.39	1217.67
687.51	1301.89
687.63	1230.44
687.75	1265.78
687.87	1249.11
687.99	1292.00
688.11	1183.67
688.23	1247.78
688.35	1280.00
688.48	1261.33
688.60	1191.78
688.72	1212.89
688.84	1236.67
688.96	1253.67
689.08	1217.33
689.20	1219.78
689.32	1346.11
689.44	1242.33
689.56	1176.56
689.68	1199.00
689.80	1212.67
689.92	1192.78
690.04	1199.33
690.16	1252.67
690.28	1243.78
690.41	1252.11
690.53	1201.44
690.65	1266.56
690.77	1285.44
690.89	1283.67
691.01	1232.56
691.13	1208.22
691.25	1187.11
691.37	1228.22
691.49	1173.56
691.61	1183.44
691.73	1310.22
691.85	1239.89
691.97	1217.22
692.09	1200.67
692.21	1275.67
692.33	1308.22
692.45	1246.44
692.57	1208.22
692.70	1234.00
692.82	1258.89
692.94	1175.78
693.06	1207.33
693.18	1239.44
693.30	1216.33
693.42	1202.33
693.54	1243.89
693.66	1243.89
693.78	1257.00
693.90	1216.00
694.02	1238.67
694.14	1262.33
694.26	1215.22
694.38	1244.89
694.50	1246.22
694.62	1247.89
694.74	1193.78
694.86	1194.00
694.98	1242.22
695.10	1248.67
695.22	1284.56
695.34	1209.56
695.46	1207.44
695.58	1228.11
695.71	1247.89
695.83	1211.56
695.95	1219.33
696.07	1304.33
696.19	1205.56
696.31	1227.67
696.43	1202.11
696.55	1321.56
696.67	1253.56
696.79	1222.11
696.91	1241.56
697.03	1221.11
697.15	1331.44
697.27	1246.67
697.39	1211.78
697.51	1277.11
697.63	1214.78
697.75	1208.78
697.87	1242.00
697.99	1197.56
698.11	1172.22
698.23	1203.44
698.35	1219.56
698.47	1229.22
698.59	1259.11
698.71	1231.00
698.83	1285.22
698.95	1214.89
699.07	1253.11
699.19	1230.44
699.31	1242.11
699.43	1214.89
699.55	1269.44
699.67	1224.78
699.79	1227.67
699.91	1225.00
700.03	1245.00
700.15	1244.67
700.27	1207.89
700.39	1240.78
700.51	1205.11
700.63	1235.22
700.75	1233.00
700.87	1267.78
700.99	1225.11
701.11	1266.56
701.24	1244.78
701.36	1289.33
701.48	1290.56
701.60	1279.89
701.72	1219.44
701.84	1316.56
701.96	1264.00
702.08	1247.56
702.20	1332.67
702.32	1284.78
702.44	1275.44
702.56	1242.56
702.68	1241.00
702.80	1265.44
702.92	1353.89
703.04	1315.67
703.16	1260.78
703.28	1264.56
703.40	1246.33
703.52	1269.78
703.64	1271.67
703.76	1264.56
703.88	1238.89
704.00	1223.22
704.12	1252.33
704.24	1313.67
704.36	1275.67
704.48	1268.33
704.60	1221.11
704.72	1249.00
704.84	1249.11
704.96	1281.89
705.07	1264.44
705.19	1227.22
705.31	1247.89
705.43	1289.56
705.55	1243.22
705.67	1280.89
705.79	1266.67
705.91	1199.22
706.03	1256.89
706.15	1265.89
706.27	1253.11
706.39	1244.44
706.51	1243.78
706.63	1243.44
706.75	1288.22
706.87	1278.22
706.99	1327.67
707.11	1268.67
707.23	1243.89
707.35	1285.33
707.47	1264.22
707.59	1296.78
707.71	1312.78
707.83	1258.67
707.95	1300.11
708.07	1254.00
708.19	1384.89
708.31	1283.56
708.43	1230.44
708.55	1281.89
708.67	1325.67
708.79	1279.44
708.91	1305.78
709.03	1283.78
709.15	1322.11
709.27	1244.89
709.39	1276.22
709.51	1258.78
709.63	1298.89
709.75	1296.44
709.87	1222.67
709.99	1300.11
710.11	1244.00
710.23	1239.89
710.35	1223.56
710.47	1372.00
710.58	1324.44
710.70	1315.67
710.82	1323.22
710.94	1281.11
711.06	1278.00
711.18	1286.22
711.30	1260.89
711.42	1303.56
711.54	1279.11
711.66	1300.33
711.78	1243.89
711.90	1306.78
712.02	1348.11
712.14	1253.78
712.26	1235.44
712.38	1323.67
712.50	1340.78
712.62	1262.56
712.74	1255.67
712.86	1258.33
712.98	1323.78
713.10	1257.22
713.22	1235.11
713.34	1287.22
713.45	1261.00
713.57	1296.33
713.69	1246.11
713.81	1267.67
713.93	1293.00
714.05	1271.22
714.17	1239.33
714.29	1343.22
714.41	1328.89
714.53	1267.78
714.65	1298.56
714.77	1288.89
714.89	1243.67
715.01	1336.22
715.13	1252.11
715.25	1292.22
715.37	1252.44
715.49	1238.89
715.61	1308.33
715.72	1308.56
715.84	1327.89
715.96	1264.89
716.08	1265.11
716.20	1356.33
716.32	1335.44
716.44	1280.67
716.56	1275.89
716.68	1297.44
716.80	1382.11
716.92	1342.22
717.04	1297.89
717.16	1307.11
717.28	1287.11
717.40	1277.44
717.52	1285.00
717.63	1267.11
717.75	1292.78
717.87	1285.67
717.99	1308.33
718.11	1279.00
718.23	1356.11
718.35	1317.56
718.47	1296.22
718.59	1239.44
718.71	1293.11
718.83	1273.44
718.95	1316.33
719.07	1249.44
719.19	1278.44
719.30	1276.89
719.42	1299.67
719.54	1284.44
719.66	1299.44
719.78	1298.22
719.90	1229.56
720.02	1287.11
720.14	1310.78
720.26	1332.89
720.38	1314.67
720.50	1274.00
720.62	1220.11
720.74	1296.44
720.85	1290.56
720.97	1352.56
721.09	1386.00
721.21	1283.89
721.33	1358.44
721.45	1310.33
721.57	1323.00
721.69	1267.78
721.81	1240.89
721.93	1356.89
722.05	1318.22
722.16	1265.78
722.28	1247.56
722.40	1281.33
722.52	1353.44
722.64	1355.22
722.76	1261.89
722.88	1319.44
723.00	1319.56
723.12	1280.00
723.24	1302.22
723.36	1243.78
723.47	1344.89
723.59	1309.78
723.71	1277.33
723.83	1321.89
723.95	1283.11
724.07	1302.67
724.19	1324.11
724.31	1385.67
724.43	1270.44
724.55	1235.56
724.66	1271.56
724.78	1437.44
724.90	1270.89
725.02	1277.00
725.14	1281.56
725.26	1301.22
725.38	1237.33
725.50	1303.67
725.62	1316.11
725.74	1302.78
725.85	1290.56
725.97	1300.22
726.09	1362.11
726.21	1631.22
726.33	1342.33
726.45	1302.00
726.57	1278.11
726.69	1304.00
726.81	1309.56
726.92	1297.67
727.04	1311.56
727.16	1331.78
727.28	1294.67
727.40	1298.56
727.52	1317.44
727.64	1431.78
727.76	1396.89
727.88	1330.44
727.99	1274.56
728.11	1280.00
728.23	1301.33
728.35	1292.67
728.47	1295.44
728.59	1300.00
728.71	1322.11
728.83	1315.78
728.94	1335.33
729.06	1405.78
729.18	1378.56
729.30	1333.00
729.42	1326.00
729.54	1398.67
729.66	1405.67
729.78	1318.11
729.90	1323.89
730.01	1303.44
730.13	1236.89
730.25	1307.00
730.37	1298.11
730.49	1333.89
730.61	1334.89
730.73	1328.56
730.84	1359.11
730.96	1344.56
731.08	1337.11
731.20	1322.78
731.32	1324.33
731.44	1469.89
731.56	1315.78
731.68	1281.67
731.79	1326.00
731.91	1289.89
732.03	1293.11
732.15	1309.11
732.27	1283.56
732.39	1304.22
732.51	1349.89
732.62	1295.89
732.74	1310.78
732.86	1374.44
732.98	1340.11
733.10	1312.56
733.22	1329.44
733.34	1345.89
733.45	1266.89
733.57	1316.56
733.69	1277.11
733.81	1306.56
733.93	1324.89
734.05	1246.33
734.17	1314.22
734.28	1313.22
734.40	1320.33
734.52	1302.44
734.64	1315.00
734.76	1400.11
734.88	1330.11
735.00	1284.78
735.11	1315.89
735.23	1376.67
735.35	1313.78
735.47	1271.22
735.59	1352.78
735.71	1317.67
735.83	1337.00
735.94	1344.00
736.06	1324.78
736.18	1377.11
736.30	1365.78
736.42	1350.78
736.54	1334.44
736.65	1356.00
736.77	1474.44
736.89	1376.56
737.01	1328.78
737.13	1429.67
737.25	1259.89
737.36	1286.56
737.48	1314.44
737.60	1326.78
737.72	1301.11
737.84	1315.78
737.96	1366.00
738.08	1316.00
738.19	1413.89
738.31	1321.44
738.43	1329.00
738.55	1320.22
738.67	1331.78
738.79	1302.67
738.90	1328.22
739.02	1347.89
739.14	1310.67
739.26	1330.11
739.38	1328.11
739.50	1361.44
739.61	1328.33
739.73	1321.78
739.85	1329.33
739.97	1340.89
740.09	1389.67
740.20	1273.89
740.32	1337.67
740.44	1356.89
740.56	1299.33
740.68	1320.00
740.80	1334.00
740.91	1344.44
741.03	1379.78
741.15	1361.11
741.27	1321.33
741.39	1377.11
741.51	1343.00
741.62	1373.44
741.74	1330.56
741.86	1323.22
741.98	1302.44
742.10	1336.00
742.21	1344.78
742.33	1334.44
742.45	1298.22
742.57	1391.44
742.69	1324.22
742.80	1369.22
742.92	1320.11
743.04	1327.89
743.16	1317.11
743.28	1393.33
743.40	1296.00
743.51	1300.22
743.63	1297.44
743.75	1335.78
743.87	1323.56
743.99	1344.11
744.10	1330.67
744.22	1333.44
744.34	1311.11
744.46	1349.11
744.58	1343.11
744.69	1271.11
744.81	1334.89
744.93	1287.11
745.05	1286.33
745.17	1402.33
745.28	1404.78
745.40	1352.00
745.52	1330.89
745.64	1335.89
745.76	1379.11
745.87	1319.67
745.99	1305.00
746.11	1345.11
746.23	1295.67
746.35	1323.00
746.46	1307.11
746.58	1449.33
746.70	1351.67
746.82	1346.44
746.94	1327.11
747.05	1304.22
747.17	1290.11
747.29	1277.22
747.41	1318.67
747.53	1457.67
747.64	1321.22
747.76	1377.56
747.88	1386.00
748.00	1377.00
748.12	1343.67
748.23	1330.78
748.35	1354.56
748.47	1372.33
748.59	1364.11
748.70	1304.22
748.82	1297.89
748.94	1305.33
749.06	1309.44
749.18	1312.11
749.29	1293.11
749.41	1355.00
749.53	1335.00
749.65	1312.78
749.76	1359.00
749.88	1333.56
750.00	1345.78
750.12	1364.00
750.24	1352.89
750.35	1328.56
750.47	1284.11
750.59	1349.11
750.71	1325.33
750.82	1368.11
750.94	1296.00
751.06	1317.44
751.18	1313.00
751.30	1358.11
751.41	1362.78
751.53	1350.11
751.65	1299.56
751.77	1312.78
751.88	1341.78
752.00	1372.00
752.12	1286.78
752.24	1381.22
752.35	1350.89
752.47	1359.78
752.59	1365.22
752.71	1410.44
752.83	1304.44
752.94	1385.33
753.06	1303.67
753.18	1341.67
753.30	1309.56
753.41	1259.78
753.53	1312.11
753.65	1314.11
753.77	1368.22
753.88	1301.89
754.00	1335.89
754.12	1344.00
754.24	1397.00
754.35	1307.56
754.47	1269.67
754.59	1352.89
754.71	1348.78
754.82	1319.67
754.94	1305.78
755.06	1377.56
755.18	1347.89
755.29	1346.33
755.41	1305.22
755.53	1357.22
755.65	1296.89
755.76	1328.44
755.88	1324.00
756.00	1379.78
756.12	1317.33
756.23	1231.33
756.35	1297.22
756.47	1361.00
756.59	1310.56
756.70	1293.00
756.82	1296.33
756.94	1310.44
757.06	1339.67
757.17	1329.22
757.29	1312.22
757.41	1284.89
757.53	1338.67
757.64	1322.67
757.76	1323.56
757.88	1349.67
758.00	1345.56
758.11	1299.22
758.23	1276.44
758.35	1344.22
758.47	1284.22
758.58	1340.78
758.70	1271.11
758.82	1297.22
758.94	1279.33
759.05	1327.22
759.17	1267.67
759.29	1314.00
759.40	1381.22
759.52	1316.56
759.64	1310.78
759.76	1328.22
759.87	1335.33
759.99	1332.22
760.11	1303.22
760.23	1323.00
760.34	1355.33
760.46	1329.00
760.58	1304.56
760.70	1319.78
760.81	1362.33
760.93	1325.33
761.05	1348.67
761.16	1329.67
761.28	1302.00
761.40	1292.00
761.52	1275.56
761.63	1361.33
761.75	1323.67
761.87	1294.89
761.98	1263.89
762.10	1335.56
762.22	1319.00
762.34	1345.00
762.45	1297.89
762.57	1342.00
762.69	1437.00
762.81	1308.67
762.92	1335.22
763.04	1257.78
763.16	1327.11
763.27	1349.89
763.39	1293.11
763.51	1332.67
763.63	1325.56
763.74	1285.56
763.86	1251.11
763.98	1280.11
764.09	1292.89
764.21	1312.56
764.33	1273.22
764.44	1293.22
764.56	1313.11
764.68	1270.78
764.80	1304.44
764.91	1245.33
765.03	1366.78
765.15	1284.00
765.26	1301.44
765.38	1271.00
765.50	1339.78
765.62	1302.11
765.73	1295.00
765.85	1314.78
765.97	1252.11
766.08	1301.78
766.20	1310.00
766.32	1317.44
766.43	1349.22
766.55	1323.11
766.67	1287.22
766.79	1303.22
766.90	1283.44
767.02	1239.44
767.14	1251.78
767.25	1256.56
767.37	1394.33
767.49	1317.33
767.60	1292.22
767.72	1342.56
767.84	1322.67
767.95	1287.56
768.07	1259.11
768.19	1319.22
768.31	1323.33
768.42	1313.00
768.54	1286.56
768.66	1293.89
768.77	1331.11
768.89	1296.67
769.01	1267.89
769.12	1315.11
769.24	1311.22
769.36	1259.67
769.47	1260.11
769.59	1247.33
769.71	1311.44
769.82	1283.67
769.94	1274.11
770.06	1245.89
770.17	1335.00
770.29	1298.00
770.41	1320.22
770.53	1316.89
770.64	1256.33
770.76	1289.00
770.88	1303.22
770.99	1320.33
771.11	1256.33
771.23	1299.11
771.34	1289.22
771.46	1373.00
771.58	1344.56
771.69	1314.11
771.81	1288.44
771.93	1324.78
772.04	1263.33
772.16	1306.22
772.28	1288.89
772.39	1331.89
772.51	1281.22
772.63	1304.78
772.74	1274.89
772.86	1281.89
772.98	1391.00
773.09	1252.33
773.21	1257.78
773.33	1303.11
773.44	1307.78
773.56	1278.44
773.68	1278.67
773.79	1331.78
773.91	1265.89
774.03	1279.00
774.14	1271.33
774.26	1326.22
774.38	1239.67
774.49	1240.44
774.61	1265.78
774.73	1281.00
774.84	1263.11
774.96	1244.33
775.08	1272.00
775.19	1293.22
775.31	1320.67
775.43	1280.56
775.54	1252.11
775.66	1226.89
775.77	1313.67
775.89	1237.22
776.01	1306.11
776.12	1319.56
776.24	1290.56
776.36	1228.44
776.47	1240.22
776.59	1281.67
776.71	1316.56
776.82	1207.11
776.94	1222.56
777.06	1250.56
777.17	1331.44
777.29	1233.33
777.41	1230.00
777.52	1287.78
777.64	1259.44
777.75	1287.89
777.87	1209.22
777.99	1246.56
778.10	1318.67
778.22	1251.33
778.34	1266.00
778.45	1252.44
778.57	1305.56
778.69	1295.89
778.80	1267.78
778.92	1358.00
779.04	1281.11
779.15	1252.67
779.27	1298.00
779.38	1296.00
779.50	1315.44
779.62	1212.22
779.73	1250.11
779.85	1195.33
779.97	1363.11
780.08	1258.89
780.20	1259.56
780.31	1281.78
780.43	1291.56
780.55	1238.56
780.66	1264.22
780.78	1282.11
780.90	1358.00
781.01	1232.44
781.13	1250.44
781.25	1240.89
781.36	1299.78
781.48	1220.33
781.59	1239.33
781.71	1279.33
781.83	1278.22
781.94	1222.11
782.06	1224.78
782.18	1296.11
782.29	1226.44
782.41	1192.33
782.52	1282.00
782.64	1292.44
782.76	1269.67
782.87	1264.78
782.99	1236.33
783.10	1369.00
783.22	1392.67
783.34	1247.11
783.45	1251.33
783.57	1245.56
783.69	1219.44
783.80	1258.44
783.92	1265.67
784.03	1243.33
784.15	1218.22
784.27	1244.22
784.38	1211.00
784.50	1209.78
784.61	1237.44
784.73	1207.22
784.85	1219.89
784.96	1206.33
785.08	1292.00
785.19	1272.78
785.31	1234.11
785.43	1201.89
785.54	1203.89
785.66	1267.56
785.77	1243.56
785.89	1259.67
786.01	1183.33
786.12	1227.67
786.24	1236.33
786.35	1305.89
786.47	1244.00
786.59	1215.89
786.70	1195.11
786.82	1235.33
786.93	1243.11
787.05	1229.78
787.17	1233.00
787.28	1223.00
787.40	1243.11
787.51	1245.44
787.63	1247.00
787.75	1185.33
787.86	1238.78
787.98	1256.00
788.09	1226.22
788.21	1249.22
788.33	1258.67
788.44	1250.00
788.56	1201.00
788.67	1253.33
788.79	1209.33
788.91	1228.00
789.02	1207.89
789.14	1211.11
789.25	1309.22
789.37	1250.44
789.48	1202.44
789.60	1238.89
789.72	1189.44
789.83	1243.56
789.95	1223.56
790.06	1163.78
790.18	1185.89
790.30	1255.78
790.41	1234.78
790.53	1197.33
790.64	1176.00
790.76	1172.67
790.87	1203.56
790.99	1217.11
791.11	1227.44
791.22	1195.22
791.34	1211.00
791.45	1244.67
791.57	1239.22
791.68	1190.33
791.80	1188.56
791.92	1240.33
792.03	1188.67
792.15	1166.00
792.26	1188.11
792.38	1164.00
792.49	1236.00
792.61	1205.44
792.73	1218.00
792.84	1206.67
792.96	1301.44
793.07	1198.89
793.19	1993.22
793.30	1294.89
793.42	1248.44
793.54	1147.67
793.65	1156.11
793.77	1333.89
793.88	1201.78
794.00	1157.78
794.11	1199.44
794.23	1149.11
794.34	1207.44
794.46	1130.44
794.58	1151.56
794.69	1289.33
794.81	1282.22
794.92	1165.00
795.04	1167.89
795.15	1275.22
795.27	1232.00
795.39	1197.67
795.50	1160.00
795.62	1163.00
795.73	1176.89
795.85	1172.00
795.96	1207.00
796.08	1247.00
796.19	1174.44
796.31	1177.67
796.42	1151.44
796.54	1165.89
796.66	1229.00
796.77	1147.89
796.89	1135.11
797.00	1236.78
797.12	1113.33
797.23	1173.33
797.35	1199.67
797.46	1223.44
797.58	1246.56
797.69	1199.00
797.81	1173.22
797.93	1180.78
798.04	1163.89
798.16	1167.22
798.27	1192.33
798.39	1145.56
798.50	1133.89
798.62	1130.44
798.73	1139.11
798.85	1266.22
798.96	1188.78
799.08	1205.89
799.19	1210.78
799.31	1183.33
799.43	1174.89
799.54	1158.56
799.66	1189.00
799.77	1214.22
799.89	1151.56
800.00	1108.89
800.12	1157.22
800.23	1226.11
800.35	1253.22
800.46	1108.11
800.58	1092.89
800.69	1164.33
800.81	1152.78
800.92	1122.22
801.04	1172.67
801.16	1108.78
801.27	1112.89
801.39	1124.22
801.50	1143.78
801.62	1156.56
801.73	1211.67
801.85	1205.67
801.96	1127.11
802.08	1212.56
802.19	1213.78
802.31	1142.00
802.42	1158.33
802.54	1234.56
802.65	1216.11
802.77	1134.33
802.88	1193.56
803.00	1113.78
803.11	1267.00
803.23	1158.89
803.34	1169.11
803.46	1184.33
803.57	1117.56
803.69	1194.56
803.80	1118.00
803.92	1203.67
804.03	1143.78
804.15	1164.78
804.26	1174.00
804.38	1191.56
804.50	1126.22
804.61	1165.56
804.73	1156.00
804.84	1155.11
804.96	1079.00
805.07	1143.44
805.19	1116.11
805.30	1168.67
805.42	1192.33
805.53	1142.67
805.65	1106.22
805.76	1094.67
805.88	1123.78
805.99	1148.33
806.11	1166.00
806.22	1113.00
806.34	1116.44
806.45	1133.44
806.57	1115.78
806.68	1176.11
806.80	1059.44
806.91	1094.89
807.03	1081.00
807.14	1056.67
807.26	1068.67
807.37	1070.56
807.49	1129.67
807.60	1099.00
807.72	1183.56
807.83	1190.44
807.95	1125.22
808.06	1136.78
808.17	1122.22
808.29	1146.00
808.40	1072.33
808.52	1101.11
808.63	1108.78
808.75	1115.33
808.86	1108.11
808.98	1113.56
809.09	1071.11
809.21	1114.22
809.32	1069.11
809.44	1118.00
809.55	1055.33
809.67	1100.56
809.78	1051.89
809.90	1112.89
810.01	1147.89
810.13	1066.00
810.24	1097.78
810.36	1025.33
810.47	1097.44
810.59	1076.00
810.70	1094.11
810.82	1111.00
810.93	1031.56
811.05	1034.11
811.16	1036.67
811.27	1034.33
811.39	1064.56
811.50	1099.33
811.62	1004.33
811.73	988.78
811.85	1076.22
811.96	1057.22
812.08	1071.11
812.19	1046.78
812.31	1066.22
812.42	1032.89
812.54	1015.22
812.65	1082.00
812.77	1086.11
812.88	1075.78
813.00	1071.67
813.11	1056.11
813.22	998.78
813.34	1011.11
813.45	1031.22
813.57	1116.78
813.68	1119.78
813.80	1030.33
813.91	987.67
814.03	1008.00
814.14	1102.22
814.26	997.67
814.37	1013.33
814.49	1012.33
814.60	993.78
814.71	986.11
814.83	995.78
814.94	957.67
815.06	986.11
815.17	997.67
815.29	989.22
815.40	954.78
815.52	1073.89
815.63	988.56
815.75	969.78
815.86	1002.89
815.97	944.67
816.09	988.00
816.20	1003.11
816.32	1005.89
816.43	931.89
816.55	988.67
816.66	959.11
816.78	1065.00
816.89	974.67
817.00	973.56
817.12	949.22
817.23	942.22
817.35	1009.00
817.46	976.89
817.58	934.44
817.69	1058.22
817.81	955.00
817.92	992.11
818.03	965.22
818.15	964.33
818.26	923.89
818.38	906.11
818.49	937.78
818.61	963.11
818.72	914.44
818.83	1830.33
818.95	1059.56
819.06	921.56
819.18	927.33
819.29	948.67
819.41	931.00
819.52	949.78
819.64	942.11
819.75	904.11
819.86	884.11
819.98	909.33
820.09	945.89
820.21	924.78
820.32	886.33
820.44	947.44
820.55	989.56
820.66	894.11
820.78	948.22
820.89	915.78
821.01	941.78
821.12	918.22
821.23	922.56
821.35	892.67
821.46	955.78
821.58	912.89
821.69	896.89
821.81	874.00
821.92	965.67
822.03	896.44
822.15	913.56
822.26	861.44
822.38	869.22
822.49	914.44
822.61	900.00
822.72	900.67
822.83	945.22
822.95	891.44
823.06	904.00
823.18	939.33
823.29	963.78
823.40	910.11
823.52	874.44
823.63	834.22
823.75	972.00
823.86	880.11
823.97	828.67
824.09	911.67
824.20	843.89
824.32	886.11
824.43	867.78
824.55	912.00
824.66	961.00
824.77	864.67
824.89	881.89
825.00	930.33
825.12	871.56
825.23	884.11
825.34	816.22
825.46	826.56
825.57	901.22
825.69	844.44
825.80	786.22
825.91	828.11
826.03	807.44
826.14	877.56
826.26	822.00
826.37	851.44
826.48	833.44
826.60	856.89
826.71	819.67
826.83	858.44
826.94	862.11
827.05	886.56
827.17	880.56
827.28	833.22
827.39	819.56
827.51	798.44
827.62	832.11
827.74	836.44
827.85	825.67
827.96	810.00
828.08	829.78
828.19	927.33
828.31	823.67
828.42	778.44
828.53	855.44
828.65	880.22
828.76	885.00
828.87	846.22
828.99	794.00
