Wavelength (nm)	Intensity
377.35	813.12
377.48	596.00
377.62	617.00
377.75	619.25
377.88	817.50
378.02	808.50
378.15	812.12
378.28	784.75
378.41	852.88
378.55	820.75
378.68	808.62
378.81	790.25
378.95	814.25
379.08	805.75
379.21	774.00
379.35	828.75
379.48	832.50
379.61	887.50
379.74	811.25
379.88	796.25
380.01	865.38
380.14	922.38
380.28	853.00
380.41	779.12
380.54	831.12
380.68	841.25
380.81	754.75
380.94	826.62
381.07	880.50
381.21	881.50
381.34	803.50
381.47	752.12
381.61	955.25
381.74	821.88
381.87	778.50
382.00	832.62
382.14	900.00
382.27	852.25
382.40	799.50
382.54	876.00
382.67	875.00
382.80	787.00
382.93	784.12
383.07	809.75
383.20	814.00
383.33	849.38
383.47	787.00
383.60	769.75
383.73	951.50
383.86	840.62
384.00	805.88
384.13	797.62
384.26	844.62
384.40	861.00
384.53	810.50
384.66	850.12
384.79	822.25
384.93	793.75
385.06	802.62
385.19	825.38
385.33	928.75
385.46	838.75
385.59	788.50
385.72	829.50
385.86	771.25
385.99	808.00
386.12	801.75
386.25	784.88
386.39	855.38
386.52	870.12
386.65	809.12
386.79	797.38
386.92	793.00
387.05	890.62
387.18	764.12
387.32	778.88
387.45	845.12
387.58	820.88
387.71	795.88
387.85	794.25
387.98	830.00
388.11	840.62
388.25	830.38
388.38	816.12
388.51	843.88
388.64	855.62
388.78	788.38
388.91	769.38
389.04	809.12
389.17	916.88
389.31	824.00
389.44	836.62
389.57	866.12
389.70	843.50
389.84	801.12
389.97	796.88
390.10	796.12
390.24	843.50
390.37	806.62
390.50	793.38
390.63	884.75
390.77	823.12
390.90	822.75
391.03	812.62
391.16	771.75
391.30	796.50
391.43	802.25
391.56	798.62
391.69	785.50
391.83	862.50
391.96	821.50
392.09	803.25
392.22	900.88
392.36	827.12
392.49	778.62
392.62	801.12
392.75	837.62
392.89	880.25
393.02	778.88
393.15	779.62
393.28	768.88
393.42	895.12
393.55	767.00
393.68	793.62
393.81	747.12
393.95	793.50
394.08	786.50
394.21	790.38
394.34	854.38
394.48	839.00
394.61	850.12
394.74	830.62
394.87	860.12
395.01	828.50
395.14	839.25
395.27	791.12
395.40	906.12
395.54	901.00
395.67	819.75
395.80	804.62
395.93	844.00
396.07	797.00
396.20	788.25
396.33	744.00
396.46	791.00
396.59	813.50
396.73	804.88
396.86	780.75
396.99	868.38
397.12	827.12
397.26	818.00
397.39	805.00
397.52	1099.12
397.65	917.88
397.79	813.25
397.92	804.88
398.05	858.25
398.18	801.50
398.32	810.50
398.45	835.25
398.58	833.12
398.71	837.62
398.84	771.25
398.98	813.38
399.11	845.38
399.24	833.88
399.37	803.12
399.51	776.12
399.64	816.25
399.77	812.88
399.90	813.38
400.03	809.62
400.17	765.38
400.30	874.75
400.43	848.75
400.56	814.62
400.70	814.12
400.83	789.75
400.96	781.62
401.09	819.00
401.23	825.00
401.36	882.00
401.49	797.62
401.62	814.38
401.75	810.75
401.89	785.00
402.02	790.88
402.15	814.75
402.28	831.00
402.41	827.50
402.55	796.88
402.68	806.88
402.81	884.12
402.94	857.75
403.08	793.88
403.21	775.12
403.34	851.88
403.47	852.38
403.60	805.50
403.74	837.38
403.87	851.12
404.00	785.88
404.13	791.62
404.26	762.38
404.40	780.00
404.53	829.38
404.66	803.75
404.79	771.75
404.93	853.00
405.06	824.12
405.19	763.50
405.32	824.12
405.45	835.50
405.59	851.88
405.72	815.00
405.85	788.88
405.98	974.75
406.11	787.62
406.25	787.62
406.38	800.12
406.51	840.25
406.64	811.12
406.77	769.75
406.91	773.38
407.04	839.88
407.17	803.25
407.30	825.25
407.43	808.25
407.57	891.62
407.70	870.62
407.83	783.38
407.96	812.88
408.09	773.00
408.23	899.88
408.36	810.25
408.49	798.75
408.62	927.88
408.75	827.25
408.89	789.75
409.02	831.00
409.15	821.50
409.28	899.25
409.41	845.00
409.55	795.25
409.68	935.12
409.81	831.00
409.94	792.00
410.07	821.38
410.20	816.00
410.34	799.88
410.47	812.38
410.60	825.38
410.73	849.88
410.86	788.50
411.00	812.00
411.13	788.38
411.26	822.75
411.39	817.88
411.52	830.25
411.66	798.00
411.79	801.00
411.92	783.88
412.05	804.00
412.18	801.25
412.31	835.62
412.45	862.88
412.58	849.38
412.71	773.62
412.84	834.62
412.97	894.38
413.11	815.12
413.24	827.50
413.37	857.75
413.50	912.50
413.63	830.00
413.76	797.00
413.90	847.75
414.03	800.50
414.16	799.75
414.29	832.62
414.42	815.88
414.56	918.12
414.69	801.38
414.82	810.25
414.95	817.50
415.08	831.38
415.21	806.50
415.35	828.25
415.48	740.38
415.61	861.50
415.74	865.00
415.87	771.88
416.00	825.12
416.14	934.38
416.27	825.88
416.40	784.25
416.53	813.88
416.66	837.50
416.79	818.25
416.93	777.38
417.06	828.62
417.19	810.88
417.32	805.25
417.45	798.88
417.58	770.75
417.72	856.75
417.85	790.88
417.98	812.38
418.11	852.25
418.24	790.50
418.37	798.00
418.51	816.62
418.64	821.50
418.77	883.38
418.90	825.50
419.03	773.88
419.16	831.50
419.29	861.25
419.43	795.50
419.56	782.88
419.69	922.50
419.82	865.38
419.95	810.62
420.08	855.00
420.22	880.75
420.35	934.00
420.48	855.88
420.61	805.00
420.74	759.00
420.87	848.88
421.00	782.00
421.14	801.25
421.27	862.25
421.40	894.25
421.53	836.75
421.66	804.62
421.79	818.25
421.93	815.75
422.06	809.38
422.19	791.25
422.32	854.62
422.45	856.25
422.58	826.50
422.71	800.62
422.85	861.62
422.98	857.75
423.11	770.50
423.24	758.00
423.37	784.00
423.50	790.25
423.63	815.62
423.77	781.75
423.90	785.88
424.03	837.00
424.16	842.62
424.29	811.12
424.42	760.25
424.55	783.00
424.69	781.50
424.82	819.38
424.95	824.12
425.08	788.12
425.21	833.75
425.34	794.50
425.47	811.12
425.60	828.75
425.74	766.62
425.87	796.25
426.00	807.62
426.13	823.75
426.26	778.25
426.39	790.25
426.52	801.88
426.66	878.50
426.79	835.38
426.92	782.12
427.05	910.00
427.18	870.00
427.31	804.00
427.44	804.88
427.57	789.12
427.71	814.88
427.84	778.38
427.97	815.25
428.10	871.38
428.23	819.50
428.36	796.75
428.49	724.62
428.62	941.62
428.76	909.62
428.89	823.75
429.02	766.25
429.15	811.00
429.28	912.38
429.41	792.00
429.54	797.88
429.67	793.50
429.81	842.88
429.94	813.75
430.07	793.75
430.20	863.25
430.33	878.25
430.46	775.00
430.59	778.25
430.72	811.00
430.85	765.25
430.99	807.25
431.12	782.75
431.25	870.50
431.38	876.38
431.51	813.12
431.64	812.38
431.77	895.25
431.90	884.75
432.03	812.25
432.17	783.75
432.30	823.25
432.43	835.50
432.56	805.88
432.69	830.25
432.82	829.88
432.95	866.00
433.08	813.62
433.21	813.62
433.35	798.75
433.48	817.25
433.61	776.38
433.74	803.50
433.87	797.50
434.00	846.00
434.13	778.12
434.26	836.38
434.39	835.75
434.53	847.12
434.66	808.38
434.79	806.00
434.92	796.75
435.05	881.88
435.18	793.50
435.31	832.75
435.44	877.88
435.57	820.25
435.70	810.25
435.84	784.00
435.97	882.62
436.10	929.88
436.23	798.38
436.36	786.38
436.49	793.25
436.62	828.38
436.75	807.62
436.88	831.75
437.01	790.75
437.14	777.25
437.28	752.88
437.41	793.88
437.54	873.50
437.67	846.12
437.80	780.75
437.93	763.62
438.06	933.12
438.19	861.38
438.32	772.25
438.45	781.62
438.58	839.38
438.72	887.00
438.85	854.38
438.98	803.50
439.11	827.50
439.24	885.00
439.37	866.62
439.50	836.12
439.63	869.25
439.76	795.88
439.89	782.38
440.02	790.75
440.15	838.12
440.29	881.50
440.42	816.12
440.55	803.38
440.68	891.75
440.81	939.00
440.94	819.62
441.07	814.50
441.20	897.50
441.33	825.62
441.46	801.62
441.59	794.62
441.72	814.00
441.85	824.50
441.99	849.38
442.12	849.88
442.25	900.50
442.38	842.75
442.51	835.50
442.64	774.38
442.77	824.12
442.90	801.75
443.03	770.12
443.16	795.25
443.29	820.62
443.42	888.12
443.55	798.38
443.68	825.25
443.82	771.62
443.95	801.88
444.08	807.50
444.21	809.62
444.34	789.50
444.47	809.62
444.60	807.12
444.73	824.25
444.86	816.50
444.99	878.50
445.12	833.25
445.25	816.12
445.38	825.50
445.51	854.75
445.64	821.12
445.78	793.62
445.91	753.88
446.04	925.75
446.17	859.00
446.30	761.88
446.43	834.75
446.56	824.75
446.69	785.12
446.82	787.62
446.95	861.88
447.08	863.62
447.21	824.38
447.34	798.50
447.47	858.38
447.60	853.00
447.73	815.75
447.86	844.50
447.99	823.50
448.13	841.38
448.26	849.62
448.39	808.25
448.52	853.75
448.65	853.25
448.78	807.62
448.91	805.38
449.04	843.75
449.17	799.00
449.30	836.12
449.43	827.75
449.56	815.00
449.69	874.75
449.82	814.75
449.95	764.75
450.08	870.12
450.21	847.88
450.34	811.25
450.47	812.00
450.60	857.25
450.73	820.62
450.87	798.75
451.00	826.38
451.13	850.88
451.26	969.25
451.39	798.25
451.52	829.88
451.65	804.12
451.78	803.12
451.91	799.75
452.04	785.88
452.17	902.75
452.30	901.50
452.43	796.88
452.56	796.00
452.69	863.25
452.82	781.50
452.95	845.50
453.08	787.25
453.21	749.38
453.34	858.38
453.47	790.00
453.60	857.38
453.73	907.38
453.86	840.38
453.99	828.25
454.12	824.12
454.25	806.38
454.38	829.62
454.52	783.00
454.65	800.62
454.78	794.12
454.91	767.00
455.04	793.88
455.17	771.88
455.30	786.75
455.43	877.25
455.56	806.88
455.69	770.88
455.82	841.00
455.95	836.75
456.08	771.62
456.21	772.50
456.34	755.38
456.47	748.38
456.60	794.88
456.73	786.75
456.86	804.75
456.99	836.88
457.12	783.88
457.25	794.00
457.38	869.25
457.51	848.25
457.64	826.25
457.77	799.62
457.90	811.00
458.03	791.50
458.16	798.88
458.29	806.75
458.42	807.12
458.55	760.00
458.68	780.62
458.81	801.62
458.94	871.75
459.07	918.75
459.20	776.25
459.33	782.62
459.46	875.88
459.59	908.50
459.72	870.25
459.85	805.38
459.98	886.00
460.11	845.25
460.24	817.00
460.37	771.38
460.50	855.25
460.63	831.88
460.76	799.50
460.89	816.50
461.02	837.25
461.15	852.38
461.28	809.12
461.41	800.38
461.54	888.38
461.67	782.50
461.80	818.50
461.93	855.75
462.06	839.88
462.19	869.12
462.32	794.38
462.45	794.38
462.58	851.50
462.71	800.12
462.84	807.38
462.97	754.75
463.10	804.75
463.23	823.25
463.36	846.75
463.49	811.75
463.62	762.00
463.75	839.62
463.88	798.50
464.01	804.50
464.14	770.38
464.27	902.88
464.40	800.12
464.53	808.50
464.66	842.75
464.79	836.38
464.92	828.12
465.05	783.00
465.18	809.75
465.31	813.62
465.44	808.25
465.57	794.25
465.70	795.62
465.83	921.12
465.96	820.50
466.09	790.50
466.22	857.75
466.35	844.12
466.48	794.38
466.61	789.12
466.74	802.75
466.87	855.62
467.00	836.25
467.13	835.38
467.26	856.75
467.39	766.25
467.52	768.62
467.65	802.75
467.78	873.75
467.91	813.12
468.04	823.38
468.17	791.50
468.30	800.50
468.43	773.38
468.56	785.38
468.69	829.50
468.82	840.12
468.95	774.75
469.08	797.00
469.21	807.00
469.34	849.00
469.47	913.50
469.60	891.25
469.73	821.75
469.86	830.25
469.99	857.25
470.11	783.12
470.24	789.88
470.37	846.50
470.50	827.88
470.63	793.12
470.76	811.62
470.89	854.50
471.02	926.75
471.15	800.25
471.28	802.75
471.41	915.62
471.54	840.88
471.67	795.25
471.80	753.88
471.93	868.38
472.06	837.38
472.19	802.50
472.32	776.25
472.45	914.62
472.58	860.50
472.71	816.50
472.84	796.00
472.97	792.75
473.10	775.25
473.23	847.00
473.36	762.12
473.49	872.25
473.62	852.75
473.74	829.62
473.87	853.38
474.00	789.62
474.13	789.88
474.26	827.75
474.39	837.50
474.52	816.38
474.65	797.75
474.78	809.38
474.91	761.12
475.04	838.12
475.17	943.75
475.30	838.88
475.43	833.38
475.56	875.50
475.69	818.38
475.82	843.62
475.95	790.25
476.08	885.62
476.21	823.38
476.34	852.62
476.46	848.25
476.59	880.00
476.72	794.88
476.85	799.38
476.98	778.25
477.11	859.88
477.24	819.00
477.37	749.38
477.50	796.75
477.63	824.00
477.76	782.62
477.89	745.12
478.02	773.62
478.15	811.12
478.28	798.25
478.41	829.25
478.54	798.38
478.66	858.12
478.79	807.00
478.92	810.25
479.05	805.88
479.18	826.25
479.31	789.38
479.44	792.12
479.57	784.88
479.70	805.88
479.83	827.50
479.96	796.50
480.09	831.12
480.22	944.25
480.35	920.00
480.48	857.25
480.60	820.50
480.73	799.75
480.86	841.62
480.99	805.62
481.12	799.75
481.25	814.50
481.38	875.38
481.51	796.25
481.64	813.38
481.77	839.38
481.90	805.25
482.03	813.62
482.16	798.62
482.29	870.00
482.41	818.88
482.54	840.00
482.67	788.62
482.80	813.00
482.93	865.75
483.06	784.38
483.19	867.38
483.32	847.12
483.45	809.75
483.58	821.38
483.71	844.88
483.84	855.00
483.97	833.00
484.09	816.62
484.22	796.00
484.35	782.12
484.48	763.00
484.61	791.25
484.74	797.88
484.87	833.38
485.00	777.75
485.13	837.12
485.26	779.88
485.39	845.62
485.52	817.50
485.64	881.62
485.77	845.62
485.90	861.62
486.03	775.88
486.16	828.00
486.29	778.88
486.42	810.62
486.55	828.88
486.68	799.50
486.81	837.50
486.94	827.00
487.06	805.25
487.19	843.50
487.32	838.75
487.45	820.88
487.58	796.50
487.71	811.88
487.84	778.12
487.97	840.38
488.10	857.50
488.23	802.38
488.35	764.88
488.48	805.75
488.61	774.88
488.74	795.38
488.87	787.00
489.00	816.62
489.13	908.75
489.26	850.75
489.39	846.00
489.52	854.00
489.64	846.88
489.77	824.50
489.90	818.25
490.03	808.62
490.16	798.62
490.29	793.88
490.42	791.62
490.55	823.62
490.68	784.75
490.81	793.75
490.93	758.25
491.06	873.50
491.19	836.38
491.32	825.62
491.45	839.25
491.58	767.25
491.71	811.00
491.84	800.00
491.97	802.38
492.09	879.25
492.22	841.88
492.35	817.25
492.48	849.25
492.61	824.62
492.74	810.00
492.87	827.00
493.00	817.75
493.12	788.50
493.25	820.62
493.38	806.75
493.51	786.88
493.64	775.00
493.77	808.50
493.90	835.75
494.03	839.25
494.16	878.25
494.28	878.62
494.41	811.00
494.54	814.62
494.67	929.88
494.80	889.25
494.93	816.12
495.06	833.75
495.19	847.62
495.31	824.50
495.44	799.38
495.57	784.12
495.70	837.12
495.83	809.38
495.96	783.12
496.09	825.75
496.22	887.62
496.34	907.75
496.47	815.62
496.60	831.75
496.73	861.38
496.86	852.75
496.99	788.12
497.12	817.00
497.24	760.00
497.37	823.75
497.50	807.75
497.63	790.62
497.76	821.50
497.89	878.00
498.02	845.50
498.15	740.50
498.27	812.88
498.40	866.75
498.53	877.00
498.66	829.50
498.79	862.38
498.92	780.88
499.05	826.62
499.17	816.88
499.30	858.75
499.43	908.00
499.56	841.50
499.69	764.38
499.82	828.62
499.95	798.25
500.07	790.12
500.20	819.62
500.33	864.38
500.46	961.25
500.59	822.38
500.72	828.88
500.85	875.12
500.97	875.25
501.10	863.25
501.23	781.38
501.36	821.50
501.49	887.00
501.62	837.88
501.75	822.88
501.87	875.25
502.00	772.62
502.13	829.25
502.26	834.62
502.39	795.12
502.52	802.88
502.64	769.62
502.77	794.38
502.90	851.25
503.03	817.38
503.16	794.62
503.29	789.25
503.42	870.75
503.54	824.88
503.67	821.88
503.80	828.12
503.93	865.12
504.06	787.00
504.19	810.50
504.31	864.75
504.44	836.25
504.57	841.50
504.70	829.38
504.83	772.00
504.96	838.38
505.08	817.50
505.21	826.38
505.34	917.38
505.47	877.25
505.60	856.50
505.73	872.38
505.85	859.88
505.98	946.00
506.11	815.62
506.24	782.75
506.37	784.12
506.50	829.50
506.62	864.12
506.75	795.75
506.88	780.62
507.01	833.12
507.14	770.62
507.27	814.88
507.39	786.88
507.52	792.12
507.65	797.38
507.78	835.25
507.91	790.00
508.04	876.00
508.16	875.88
508.29	831.62
508.42	803.38
508.55	785.75
508.68	797.00
508.81	862.12
508.93	800.25
509.06	807.00
509.19	860.12
509.32	844.50
509.45	829.88
509.57	840.62
509.70	791.62
509.83	821.62
509.96	778.88
510.09	819.75
510.22	816.62
510.34	817.12
510.47	814.12
510.60	920.62
510.73	836.62
510.86	836.62
510.98	805.38
511.11	801.00
511.24	864.38
511.37	850.25
511.50	807.38
511.63	827.75
511.75	831.00
511.88	821.12
512.01	840.38
512.14	824.25
512.27	835.62
512.39	815.50
512.52	811.88
512.65	827.00
512.78	793.38
512.91	820.25
513.03	820.75
513.16	857.38
513.29	829.50
513.42	808.12
513.55	783.12
513.67	845.50
513.80	769.88
513.93	796.25
514.06	798.25
514.19	838.00
514.31	836.88
514.44	857.88
514.57	811.50
514.70	830.12
514.83	873.12
514.95	796.62
515.08	830.12
515.21	846.62
515.34	824.62
515.47	814.88
515.59	791.62
515.72	844.62
515.85	848.50
515.98	876.25
516.11	829.88
516.23	860.75
516.36	887.00
516.49	843.88
516.62	824.00
516.75	883.62
516.87	884.12
517.00	804.50
517.13	843.50
517.26	869.75
517.39	838.12
517.51	756.50
517.64	818.75
517.77	896.75
517.90	791.50
518.02	824.00
518.15	793.62
518.28	744.00
518.41	815.88
518.54	817.38
518.66	831.88
518.79	785.50
518.92	808.62
519.05	788.00
519.18	816.12
519.30	849.12
519.43	779.50
519.56	789.75
519.69	799.00
519.81	867.12
519.94	803.75
520.07	753.75
520.20	794.25
520.33	826.25
520.45	885.12
520.58	833.38
520.71	833.25
520.84	869.88
520.96	837.00
521.09	816.12
521.22	791.50
521.35	851.25
521.48	848.00
521.60	791.38
521.73	823.12
521.86	876.50
521.99	901.00
522.11	834.38
522.24	811.25
522.37	844.12
522.50	831.25
522.62	868.12
522.75	767.75
522.88	828.75
523.01	800.00
523.14	847.88
523.26	834.00
523.39	884.25
523.52	791.25
523.65	901.88
523.77	852.38
523.90	824.88
524.03	811.12
524.16	811.25
524.28	804.50
524.41	804.38
524.54	815.12
524.67	774.88
524.79	800.25
524.92	841.25
525.05	890.00
525.18	785.75
525.31	856.50
525.43	782.88
525.56	932.75
525.69	802.62
525.82	759.12
525.94	857.38
526.07	856.12
526.20	843.00
526.33	860.12
526.45	936.00
526.58	911.88
526.71	840.88
526.84	816.12
526.96	828.00
527.09	793.75
527.22	805.38
527.35	803.88
527.47	776.62
527.60	888.38
527.73	788.12
527.86	853.38
527.98	840.75
528.11	844.62
528.24	789.12
528.37	807.12
528.49	774.75
528.62	820.75
528.75	850.50
528.88	792.88
529.00	851.88
529.13	869.00
529.26	822.75
529.39	847.88
529.51	946.88
529.64	919.75
529.77	793.38
529.90	803.50
530.02	805.88
530.15	794.38
530.28	753.00
530.40	790.38
530.53	811.38
530.66	831.12
530.79	801.50
530.91	818.25
531.04	797.88
531.17	808.25
531.30	810.88
531.42	815.12
531.55	827.12
531.68	885.25
531.81	796.88
531.93	814.12
532.06	828.62
532.19	782.88
532.31	811.38
532.44	812.00
532.57	843.75
532.70	793.12
532.82	820.88
532.95	847.00
533.08	881.25
533.21	852.12
533.33	785.62
533.46	795.88
533.59	806.00
533.71	929.25
533.84	835.25
533.97	803.88
534.10	799.12
534.22	782.00
534.35	812.50
534.48	819.25
534.61	844.12
534.73	755.00
534.86	786.50
534.99	830.12
535.11	871.12
535.24	828.12
535.37	787.62
535.50	780.00
535.62	784.00
535.75	878.62
535.88	822.38
536.00	792.75
536.13	798.38
536.26	803.38
536.39	797.25
536.51	773.62
536.64	837.00
536.77	812.12
536.89	814.38
537.02	822.12
537.15	840.12
537.28	818.00
537.40	827.12
537.53	802.50
537.66	861.50
537.78	820.00
537.91	784.00
538.04	793.38
538.17	849.62
538.29	840.00
538.42	891.50
538.55	868.88
538.67	847.00
538.80	790.50
538.93	830.75
539.05	815.25
539.18	880.38
539.31	856.62
539.44	830.62
539.56	749.12
539.69	806.75
539.82	805.75
539.94	810.50
540.07	787.62
540.20	881.38
540.32	786.38
540.45	816.62
540.58	806.25
540.71	859.25
540.83	763.62
540.96	797.12
541.09	808.12
541.21	889.12
541.34	880.25
541.47	787.12
541.59	810.50
541.72	892.38
541.85	960.12
541.98	873.12
542.10	812.75
542.23	837.38
542.36	938.25
542.48	831.50
542.61	812.88
542.74	778.12
542.86	798.50
542.99	810.62
543.12	792.12
543.24	826.12
543.37	760.38
543.50	808.75
543.62	788.62
543.75	811.00
543.88	804.25
544.01	830.25
544.13	842.38
544.26	846.38
544.39	795.25
544.51	795.50
544.64	782.62
544.77	842.12
544.89	797.12
545.02	825.00
545.15	793.38
545.27	898.12
545.40	870.50
545.53	843.75
545.65	840.88
545.78	749.38
545.91	778.25
546.03	798.50
546.16	807.75
546.29	797.38
546.41	775.25
546.54	804.75
546.67	779.12
546.79	854.25
546.92	893.75
547.05	763.88
547.17	817.00
547.30	786.50
547.43	840.62
547.56	779.12
547.68	811.62
547.81	769.38
547.94	837.50
548.06	806.88
548.19	779.88
548.32	872.25
548.44	831.12
548.57	827.75
548.70	849.00
548.82	856.38
548.95	845.12
549.08	813.00
549.20	804.75
549.33	899.75
549.45	822.88
549.58	808.38
549.71	769.88
549.83	862.12
549.96	772.00
550.09	819.75
550.21	789.75
550.34	824.38
550.47	804.38
550.59	801.75
550.72	745.62
550.85	814.38
550.97	878.62
551.10	798.00
551.23	808.00
551.35	881.38
551.48	829.38
551.61	807.88
551.73	798.38
551.86	887.62
551.99	876.25
552.11	819.12
552.24	849.62
552.37	827.00
552.49	787.12
552.62	797.62
552.75	842.88
552.87	797.62
553.00	787.12
553.12	819.62
553.25	800.88
553.38	838.00
553.50	872.50
553.63	813.38
553.76	754.12
553.88	816.75
554.01	806.00
554.14	802.38
554.26	840.00
554.39	892.38
554.52	818.62
554.64	812.62
554.77	794.38
554.89	847.75
555.02	862.00
555.15	831.00
555.27	812.88
555.40	819.50
555.53	871.62
555.65	803.62
555.78	776.50
555.91	848.88
556.03	892.38
556.16	778.50
556.29	819.50
556.41	876.38
556.54	870.12
556.66	810.88
556.79	790.38
556.92	818.25
557.04	829.50
557.17	792.25
557.30	797.12
557.42	804.00
557.55	810.38
557.67	830.38
557.80	801.75
557.93	816.88
558.05	812.75
558.18	781.00
558.31	817.38
558.43	857.75
558.56	831.12
558.68	810.75
558.81	784.00
558.94	803.25
559.06	923.88
559.19	796.12
559.32	796.50
559.44	769.88
559.57	818.50
559.69	785.88
559.82	783.50
559.95	798.75
560.07	802.00
560.20	741.75
560.33	809.12
560.45	830.00
560.58	763.00
560.70	812.38
560.83	769.50
560.96	804.88
561.08	802.75
561.21	828.00
561.33	771.75
561.46	763.62
561.59	845.75
561.71	792.25
561.84	824.50
561.97	774.12
562.09	840.62
562.22	785.75
562.34	779.00
562.47	846.62
562.60	836.62
562.72	810.88
562.85	822.12
562.97	802.25
563.10	796.75
563.23	778.38
563.35	780.00
563.48	823.25
563.60	809.50
563.73	841.75
563.86	764.62
563.98	785.25
564.11	806.88
564.23	798.62
564.36	873.75
564.49	806.62
564.61	871.12
564.74	821.75
564.86	784.25
564.99	863.00
565.12	842.88
565.24	854.38
565.37	851.50
565.49	859.62
565.62	875.12
565.75	842.25
565.87	779.25
566.00	940.25
566.12	868.50
566.25	822.88
566.38	847.00
566.50	825.25
566.63	862.00
566.75	804.88
566.88	785.25
567.01	780.38
567.13	802.75
567.26	805.38
567.38	787.75
567.51	857.00
567.64	784.62
567.76	836.38
567.89	823.62
568.01	774.88
568.14	773.25
568.26	813.75
568.39	813.12
568.52	810.25
568.64	846.00
568.77	796.75
568.89	793.38
569.02	788.88
569.15	805.12
569.27	802.88
569.40	831.00
569.52	845.25
569.65	797.75
569.77	798.62
569.90	763.38
570.03	756.38
570.15	864.00
570.28	805.62
570.40	798.75
570.53	795.50
570.66	868.38
570.78	850.50
570.91	811.25
571.03	767.50
571.16	805.25
571.28	763.75
571.41	758.00
571.54	754.12
571.66	748.88
571.79	776.00
571.91	781.00
572.04	765.38
572.16	815.50
572.29	829.75
572.42	784.38
572.54	819.62
572.67	781.00
572.79	819.00
572.92	810.88
573.04	836.25
573.17	855.50
573.29	811.25
573.42	790.88
573.55	839.00
573.67	829.38
573.80	805.00
573.92	770.00
574.05	815.75
574.17	858.62
574.30	797.75
574.43	792.00
574.55	791.88
574.68	810.00
574.80	790.12
574.93	798.25
575.05	766.75
575.18	792.12
575.30	792.75
575.43	837.88
575.56	861.25
575.68	823.88
575.81	793.62
575.93	775.25
576.06	829.00
576.18	839.88
576.31	797.25
576.43	778.38
576.56	886.12
576.69	864.62
576.81	816.62
576.94	794.12
577.06	807.88
577.19	837.25
577.31	812.75
577.44	821.25
577.56	853.88
577.69	825.88
577.82	813.62
577.94	782.75
578.07	760.50
578.19	829.00
578.32	837.62
578.44	790.12
578.57	793.75
578.69	851.88
578.82	815.25
578.94	842.50
579.07	860.00
579.19	841.50
579.32	830.25
579.45	825.50
579.57	806.00
579.70	778.88
579.82	818.50
579.95	793.12
580.07	874.38
580.20	798.50
580.32	813.50
580.45	839.62
580.57	846.62
580.70	807.00
580.82	827.50
580.95	833.75
581.08	774.75
581.20	853.38
581.33	804.12
581.45	825.50
581.58	814.88
581.70	825.62
581.83	740.00
581.95	823.38
582.08	840.75
582.20	797.75
582.33	807.88
582.45	789.62
582.58	806.12
582.70	831.75
582.83	787.00
582.95	806.62
583.08	848.38
583.21	857.25
583.33	820.38
583.46	785.62
583.58	762.88
583.71	838.75
583.83	820.12
583.96	828.75
584.08	833.88
584.21	838.50
584.33	838.12
584.46	802.50
584.58	769.62
584.71	848.12
584.83	841.12
584.96	809.12
585.08	790.88
585.21	909.38
585.33	871.25
585.46	838.38
585.58	853.00
585.71	795.75
585.83	813.25
585.96	854.00
586.08	836.88
586.21	832.75
586.33	846.75
586.46	770.75
586.59	838.88
586.71	780.75
586.84	829.88
586.96	814.75
587.09	758.75
587.21	791.38
587.34	844.62
587.46	781.75
587.59	762.88
587.71	802.75
587.84	792.25
587.96	756.50
588.09	769.38
588.21	836.12
588.34	804.75
588.46	819.38
588.59	788.50
588.71	830.00
588.84	829.12
588.96	805.12
589.09	897.88
589.21	809.50
589.34	785.12
589.46	800.38
589.59	818.38
589.71	857.88
589.84	763.50
589.96	784.62
590.09	808.75
590.21	840.25
590.34	820.62
590.46	820.88
590.59	786.62
590.71	799.12
590.84	849.50
590.96	779.75
591.09	830.12
591.21	816.12
591.34	798.62
591.46	805.25
591.59	871.25
591.71	837.25
591.83	804.25
591.96	759.38
592.08	792.88
592.21	837.50
592.33	815.12
592.46	798.50
592.58	825.88
592.71	850.62
592.83	889.12
592.96	842.50
593.08	863.25
593.21	781.12
593.33	776.25
593.46	802.00
593.58	798.38
593.71	850.50
593.83	854.50
593.96	779.25
594.08	924.50
594.21	807.75
594.33	794.50
594.46	774.75
594.58	765.88
594.71	744.88
594.83	818.75
594.96	807.62
595.08	969.75
595.20	841.12
595.33	818.50
595.45	779.75
595.58	897.62
595.70	822.88
595.83	795.50
595.95	806.25
596.08	821.62
596.20	766.62
596.33	761.38
596.45	814.00
596.58	783.38
596.70	769.75
596.83	796.12
596.95	792.38
597.08	817.25
597.20	775.12
597.32	787.25
597.45	824.12
597.57	804.12
597.70	838.12
597.82	790.75
597.95	808.75
598.07	805.62
598.20	813.62
598.32	808.50
598.45	801.12
598.57	856.12
598.70	866.75
598.82	794.50
598.94	799.75
599.07	853.25
599.19	812.25
599.32	796.00
599.44	728.12
599.57	839.00
599.69	825.75
599.82	803.88
599.94	775.75
600.07	857.00
600.19	827.38
600.31	787.50
600.44	844.25
600.56	923.25
600.69	904.12
600.81	787.38
600.94	800.00
601.06	813.12
601.19	839.50
601.31	852.50
601.44	768.00
601.56	866.75
601.68	843.38
601.81	830.00
601.93	820.38
602.06	833.50
602.18	772.75
602.31	802.88
602.43	863.88
602.56	843.62
602.68	808.00
602.80	807.75
602.93	815.00
603.05	785.12
603.18	812.00
603.30	773.38
603.43	778.50
603.55	802.00
603.68	823.12
603.80	822.62
603.92	815.00
604.05	793.38
604.17	788.12
604.30	771.25
604.42	794.00
604.55	806.12
604.67	841.50
604.79	792.25
604.92	801.88
605.04	790.50
605.17	791.75
605.29	788.12
605.42	783.88
605.54	876.38
605.66	825.88
605.79	830.38
605.91	802.88
606.04	800.50
606.16	787.75
606.29	821.25
606.41	777.62
606.53	795.88
606.66	759.75
606.78	795.12
606.91	794.75
607.03	792.00
607.16	781.88
607.28	774.00
607.40	809.00
607.53	824.88
607.65	772.38
607.78	781.38
607.90	811.12
608.03	911.62
608.15	823.88
608.27	827.12
608.40	769.75
608.52	822.00
608.65	806.75
608.77	840.38
608.89	809.62
609.02	873.75
609.14	889.75
609.27	830.50
609.39	845.50
609.52	787.75
609.64	743.00
609.76	790.12
609.89	796.38
610.01	858.12
610.14	843.88
610.26	810.00
610.38	781.00
610.51	849.62
610.63	796.38
610.76	771.38
610.88	821.62
611.01	874.62
611.13	901.62
611.25	842.38
611.38	776.88
611.50	808.38
611.63	832.88
611.75	814.12
611.87	825.75
612.00	790.50
612.12	849.75
612.25	804.25
612.37	779.50
612.49	868.88
612.62	859.12
612.74	874.25
612.87	809.25
612.99	807.25
613.11	759.50
613.24	801.00
613.36	798.88
613.49	812.00
613.61	811.50
613.73	792.25
613.86	849.38
613.98	781.62
614.11	843.25
614.23	848.25
614.35	856.12
614.48	859.50
614.60	820.75
614.72	810.25
614.85	826.00
614.97	820.50
615.10	819.38
615.22	798.50
615.34	813.50
615.47	861.62
615.59	787.75
615.72	807.88
615.84	821.62
615.96	782.00
616.09	891.38
616.21	804.12
616.34	793.88
616.46	801.62
616.58	832.62
616.71	836.75
616.83	845.25
616.95	836.38
617.08	834.00
617.20	810.75
617.33	769.25
617.45	802.50
617.57	829.38
617.70	812.00
617.82	793.88
617.95	819.88
618.07	881.00
618.19	830.25
618.32	820.38
618.44	790.88
618.56	775.00
618.69	745.88
618.81	756.88
618.94	839.25
619.06	807.38
619.18	801.50
619.31	774.12
619.43	774.00
619.55	827.25
619.68	828.62
619.80	771.12
619.92	825.12
620.05	935.75
620.17	858.75
620.30	809.75
620.42	829.12
620.54	851.38
620.67	792.38
620.79	816.62
620.91	826.25
621.04	872.00
621.16	798.38
621.29	787.75
621.41	757.12
621.53	789.00
621.66	802.75
621.78	795.12
621.90	844.25
622.03	906.00
622.15	817.88
622.27	808.00
622.40	826.00
622.52	788.38
622.64	792.75
622.77	764.75
622.89	823.62
623.02	847.88
623.14	825.62
623.26	837.88
623.39	835.38
623.51	861.38
623.63	793.88
623.76	778.00
623.88	870.38
624.00	813.12
624.13	777.38
624.25	782.12
624.37	773.00
624.50	855.75
624.62	829.00
624.75	765.62
624.87	770.25
624.99	832.75
625.12	792.00
625.24	798.12
625.36	890.12
625.49	846.12
625.61	828.75
625.73	813.62
625.86	846.50
625.98	811.00
626.10	779.88
626.23	763.12
626.35	825.75
626.47	797.50
626.60	766.88
626.72	786.62
626.84	788.75
626.97	821.75
627.09	805.25
627.21	806.25
627.34	917.50
627.46	897.38
627.58	809.12
627.71	822.88
627.83	843.88
627.95	772.88
628.08	808.50
628.20	848.00
628.32	759.25
628.45	733.38
628.57	747.25
628.69	778.25
628.82	828.50
628.94	862.88
629.06	805.00
629.19	790.38
629.31	837.50
629.43	774.12
629.56	818.00
629.68	806.75
629.80	853.50
629.93	777.88
630.05	782.38
630.17	766.38
630.30	794.75
630.42	777.88
630.54	829.25
630.67	811.25
630.79	785.50
630.91	918.88
631.04	826.75
631.16	812.25
631.28	821.12
631.41	783.25
631.53	767.25
631.65	812.25
631.78	829.00
631.90	803.38
632.02	807.00
632.14	728.12
632.27	864.12
632.39	809.50
632.51	785.00
632.64	854.38
632.76	806.38
632.88	788.50
633.01	814.88
633.13	799.00
633.25	811.25
633.38	917.88
633.50	760.50
633.62	757.50
633.75	749.38
633.87	738.25
633.99	815.62
634.11	759.75
634.24	788.12
634.36	797.50
634.48	798.50
634.61	782.88
634.73	829.00
634.85	788.25
634.98	783.00
635.10	794.12
635.22	799.62
635.35	913.00
635.47	818.50
635.59	797.75
635.71	822.88
635.84	850.25
635.96	790.12
636.08	841.75
636.21	784.75
636.33	815.75
636.45	805.00
636.58	779.75
636.70	747.75
636.82	829.00
636.94	785.50
637.07	755.00
637.19	839.12
637.31	834.38
637.44	825.38
637.56	756.88
637.68	816.75
637.81	818.00
637.93	810.50
638.05	764.88
638.17	852.12
638.30	911.38
638.42	797.75
638.54	778.75
638.67	796.00
638.79	812.25
638.91	772.25
639.03	788.12
639.16	788.25
639.28	801.75
639.40	798.62
639.53	786.12
639.65	834.50
639.77	791.50
639.89	809.38
640.02	802.62
640.14	809.12
640.26	768.75
640.39	829.25
640.51	779.12
640.63	814.62
640.75	845.88
640.88	802.62
641.00	785.12
641.12	773.62
641.24	875.62
641.37	791.75
641.49	768.62
641.61	905.12
641.74	775.38
641.86	817.38
641.98	765.75
642.10	817.25
642.23	824.75
642.35	790.50
642.47	815.38
642.60	810.62
642.72	836.62
642.84	744.88
642.96	764.75
643.09	775.00
643.21	765.38
643.33	769.00
643.45	772.25
643.58	840.75
643.70	875.50
643.82	785.62
643.94	790.25
644.07	806.12
644.19	816.75
644.31	812.38
644.44	803.25
644.56	794.38
644.68	761.50
644.80	765.88
644.93	761.38
645.05	772.25
645.17	807.88
645.29	808.25
645.42	815.12
645.54	804.12
645.66	828.12
645.78	796.75
645.91	782.62
646.03	823.88
646.15	878.25
646.27	780.00
646.40	810.75
646.52	832.75
646.64	841.62
646.76	792.88
646.89	742.88
647.01	829.12
647.13	818.38
647.25	833.38
647.38	794.12
647.50	768.62
647.62	830.75
647.74	752.88
647.87	765.88
647.99	807.25
648.11	823.38
648.23	798.62
648.36	751.62
648.48	862.88
648.60	807.50
648.72	773.75
648.85	766.62
648.97	852.50
649.09	824.00
649.21	786.12
649.34	814.00
649.46	821.25
649.58	819.38
649.70	828.75
649.83	780.12
649.95	818.12
650.07	835.00
650.19	842.25
650.32	811.38
650.44	851.25
650.56	820.88
650.68	780.25
650.81	781.50
650.93	782.88
651.05	859.25
651.17	773.88
651.29	824.00
651.42	797.12
651.54	828.12
651.66	771.25
651.78	773.50
651.91	825.62
652.03	915.50
652.15	831.38
652.27	780.50
652.40	809.00
652.52	795.38
652.64	809.50
652.76	782.62
652.88	894.62
653.01	803.75
653.13	762.38
653.25	736.38
653.37	838.38
653.50	846.25
653.62	823.38
653.74	752.62
653.86	838.50
653.98	827.25
654.11	771.50
654.23	795.12
654.35	787.12
654.47	919.88
654.60	790.00
654.72	789.12
654.84	767.38
654.96	841.50
655.08	786.38
655.21	812.00
655.33	791.38
655.45	843.75
655.57	809.50
655.70	805.50
655.82	846.25
655.94	878.25
656.06	826.25
656.18	765.00
656.31	854.25
656.43	829.12
656.55	773.88
656.67	791.50
656.79	797.88
656.92	853.75
657.04	820.00
657.16	784.00
657.28	917.00
657.40	816.62
657.53	828.00
657.65	791.62
657.77	853.00
657.89	850.88
658.01	784.75
658.14	764.12
658.26	833.50
658.38	793.62
658.50	761.12
658.62	760.62
658.75	920.50
658.87	841.25
658.99	831.25
659.11	767.88
659.23	853.75
659.36	906.00
659.48	852.12
659.60	827.00
659.72	816.38
659.84	807.38
659.97	829.88
660.09	836.38
660.21	909.62
660.33	850.75
660.45	750.88
660.58	732.50
660.70	780.62
660.82	787.75
660.94	763.12
661.06	800.00
661.19	855.38
661.31	837.75
661.43	802.75
661.55	793.38
661.67	837.25
661.80	873.12
661.92	805.62
662.04	810.38
662.16	817.12
662.28	867.38
662.40	804.88
662.53	809.25
662.65	822.88
662.77	774.75
662.89	809.75
663.01	780.25
663.14	798.50
663.26	830.62
663.38	803.00
663.50	770.25
663.62	783.62
663.74	807.00
663.87	783.88
663.99	810.88
664.11	844.62
664.23	920.12
664.35	800.50
664.48	785.62
664.60	796.12
664.72	791.00
664.84	764.62
664.96	790.62
665.08	856.25
665.21	823.00
665.33	832.88
665.45	749.50
665.57	804.50
665.69	881.88
665.81	804.25
665.94	771.12
666.06	776.38
666.18	821.00
666.30	793.38
666.42	776.25
666.54	816.12
666.67	832.38
666.79	767.75
666.91	835.50
667.03	782.62
667.15	755.38
667.27	787.88
667.40	761.62
667.52	794.62
667.64	838.75
667.76	781.50
667.88	761.88
668.00	831.00
668.13	844.88
668.25	770.12
668.37	775.00
668.49	789.12
668.61	845.88
668.73	800.25
668.85	808.00
668.98	821.75
669.10	812.00
669.22	787.50
669.34	795.88
669.46	835.50
669.58	790.00
669.71	807.50
669.83	804.12
669.95	794.88
670.07	805.62
670.19	784.50
670.31	795.88
670.43	785.25
670.56	823.25
670.68	849.12
670.80	822.75
670.92	808.62
671.04	858.62
671.16	796.25
671.28	783.38
671.41	796.62
671.53	839.25
671.65	787.25
671.77	792.38
671.89	943.50
672.01	893.38
672.13	843.62
672.26	772.88
672.38	814.88
672.50	770.38
672.62	797.12
672.74	819.12
672.86	800.12
672.98	816.38
673.11	800.62
673.23	809.75
673.35	861.12
673.47	801.00
673.59	803.88
673.71	764.88
673.83	823.25
673.96	912.50
674.08	801.50
674.20	762.25
674.32	802.88
674.44	805.38
674.56	820.38
674.68	815.38
674.80	837.50
674.93	810.38
675.05	797.25
675.17	807.38
675.29	840.00
675.41	846.62
675.53	796.88
675.65	789.50
675.77	796.00
675.90	855.12
676.02	782.38
676.14	766.25
676.26	874.88
676.38	905.00
676.50	808.88
676.62	828.50
676.74	767.88
676.87	783.75
676.99	815.25
677.11	843.75
677.23	815.25
677.35	836.62
677.47	759.75
677.59	783.25
677.71	826.75
677.83	839.38
677.96	804.50
678.08	801.88
678.20	804.75
678.32	770.62
678.44	803.38
678.56	796.88
678.68	945.38
678.80	843.88
678.93	796.75
679.05	814.62
679.17	802.00
679.29	855.88
679.41	806.25
679.53	776.88
679.65	784.50
679.77	807.75
679.89	791.38
680.01	828.12
680.14	830.62
680.26	748.12
680.38	786.38
680.50	831.00
680.62	886.38
680.74	829.38
680.86	794.75
680.98	807.38
681.10	829.88
681.22	914.25
681.35	787.12
681.47	787.88
681.59	775.12
681.71	883.75
681.83	806.00
681.95	778.12
682.07	862.88
682.19	825.62
682.31	790.12
682.43	765.12
682.56	839.25
682.68	766.62
682.80	780.50
682.92	822.38
683.04	809.88
683.16	791.62
683.28	777.62
683.40	833.25
683.52	805.00
683.64	830.25
683.76	774.88
683.89	786.88
684.01	804.25
684.13	856.88
684.25	810.75
684.37	809.88
684.49	843.50
684.61	794.00
684.73	806.75
684.85	799.38
684.97	776.25
685.09	863.62
685.21	781.12
685.34	806.50
685.46	940.38
685.58	829.50
685.70	820.00
685.82	849.62
685.94	778.50
686.06	781.62
686.18	774.12
686.30	801.00
686.42	766.62
686.54	832.38
686.66	769.75
686.79	873.88
686.91	831.12
687.03	917.50
687.15	836.75
687.27	805.38
687.39	806.38
687.51	882.88
687.63	823.88
687.75	850.38
687.87	833.38
687.99	875.62
688.11	776.75
688.23	828.12
688.35	857.75
688.48	827.75
688.60	780.38
688.72	795.75
688.84	822.12
688.96	843.62
689.08	805.75
689.20	805.00
689.32	927.75
689.44	823.12
689.56	762.12
689.68	778.75
689.80	798.88
689.92	778.75
690.04	790.62
690.16	842.75
690.28	827.25
690.41	833.75
690.53	785.25
690.65	841.88
690.77	859.62
690.89	855.88
691.01	809.25
691.13	786.75
691.25	770.38
691.37	802.75
691.49	754.62
691.61	754.38
691.73	885.25
691.85	814.88
691.97	794.50
692.09	776.25
692.21	852.88
692.33	873.88
692.45	823.62
692.57	793.38
692.70	815.38
692.82	833.50
692.94	750.38
693.06	782.38
693.18	809.75
693.30	792.62
693.42	780.38
693.54	818.25
693.66	827.00
693.78	826.25
693.90	795.00
694.02	812.38
694.14	825.25
694.26	791.62
694.38	814.75
694.50	820.38
694.62	831.88
694.74	763.50
694.86	771.38
694.98	814.38
695.10	826.00
695.22	856.38
695.34	784.88
695.46	785.00
695.58	795.38
695.71	820.62
695.83	785.88
695.95	789.62
696.07	865.50
696.19	774.75
696.31	788.25
696.43	767.25
696.55	886.75
696.67	819.88
696.79	790.25
696.91	806.50
697.03	783.25
697.15	884.25
697.27	815.88
697.39	779.75
697.51	842.62
697.63	781.50
697.75	782.62
697.87	811.25
697.99	762.62
698.11	735.25
698.23	762.75
698.35	785.38
698.47	791.38
698.59	814.38
698.71	791.00
698.83	849.12
698.95	776.25
699.07	817.12
699.19	791.25
699.31	805.50
699.43	774.38
699.55	831.88
699.67	793.50
699.79	790.62
699.91	783.88
700.03	809.38
700.15	804.88
700.27	774.75
700.39	800.75
700.51	762.62
700.63	795.00
700.75	791.75
700.87	815.38
700.99	787.88
701.11	824.62
701.24	798.38
701.36	844.38
701.48	845.38
701.60	831.88
701.72	777.62
701.84	872.25
701.96	817.50
702.08	806.50
702.20	887.88
702.32	839.12
702.44	835.75
702.56	798.38
702.68	803.88
702.80	810.62
702.92	902.75
703.04	873.88
703.16	809.75
703.28	817.75
703.40	801.25
703.52	822.88
703.64	823.38
703.76	823.88
703.88	789.50
704.00	783.38
704.12	802.38
704.24	850.88
704.36	815.62
704.48	814.12
704.60	767.50
704.72	801.62
704.84	795.75
704.96	822.38
705.07	815.62
705.19	773.25
705.31	797.75
705.43	835.38
705.55	784.25
705.67	830.25
705.79	812.75
705.91	748.00
706.03	806.75
706.15	812.25
706.27	797.62
706.39	789.00
706.51	776.38
706.63	795.12
706.75	831.50
706.87	822.12
706.99	867.25
707.11	807.75
707.23	794.38
707.35	828.38
707.47	811.38
707.59	843.00
707.71	850.38
707.83	795.25
707.95	844.38
708.07	809.50
708.19	923.75
708.31	820.38
708.43	773.50
708.55	821.62
708.67	855.75
708.79	817.62
708.91	841.75
709.03	823.75
709.15	854.62
709.27	783.75
709.39	810.88
709.51	800.88
709.63	826.50
709.75	828.00
709.87	761.75
709.99	841.88
710.11	791.38
710.23	788.00
710.35	765.50
710.47	906.12
710.58	866.62
710.70	858.12
710.82	860.25
710.94	814.50
711.06	806.12
711.18	816.00
711.30	790.50
711.42	859.88
711.54	805.88
711.66	834.88
711.78	786.25
711.90	835.88
712.02	877.38
712.14	782.75
712.26	761.12
712.38	862.75
712.50	869.00
712.62	795.25
712.74	785.00
712.86	781.00
712.98	847.38
713.10	780.88
713.22	762.62
713.34	809.50
713.45	786.88
713.57	825.50
713.69	778.88
713.81	793.25
713.93	819.88
714.05	800.25
714.17	759.12
714.29	876.62
714.41	852.50
714.53	793.88
714.65	824.38
714.77	814.38
714.89	767.50
715.01	859.00
715.13	777.38
715.25	809.00
715.37	777.75
715.49	756.25
715.61	827.62
715.72	828.00
715.84	857.75
715.96	799.38
716.08	798.25
716.20	876.88
716.32	846.50
716.44	799.38
716.56	803.50
716.68	815.88
716.80	897.50
716.92	867.12
717.04	818.75
717.16	838.25
717.28	807.12
717.40	797.12
717.52	811.12
717.63	785.75
717.75	810.50
717.87	804.38
717.99	824.62
718.11	799.88
718.23	870.38
718.35	831.50
718.47	815.12
718.59	756.62
718.71	810.75
718.83	790.50
718.95	836.38
719.07	772.38
719.19	806.38
719.30	801.88
719.42	812.88
719.54	805.00
719.66	824.88
719.78	809.62
719.90	748.88
720.02	806.62
720.14	826.25
720.26	852.62
720.38	832.12
720.50	778.88
720.62	739.00
720.74	813.25
720.85	815.50
720.97	874.25
721.09	905.25
721.21	806.62
721.33	874.50
721.45	822.12
721.57	827.50
721.69	782.12
721.81	760.50
721.93	872.75
722.05	827.50
722.16	777.88
722.28	753.25
722.40	789.12
722.52	866.00
722.64	875.25
722.76	778.00
722.88	833.62
723.00	839.50
723.12	792.88
723.24	817.00
723.36	756.12
723.47	851.75
723.59	822.62
723.71	797.25
723.83	831.12
723.95	797.75
724.07	804.38
724.19	829.38
724.31	887.00
724.43	784.38
724.55	740.50
724.66	777.12
724.78	945.12
724.90	781.25
725.02	774.50
725.14	789.88
725.26	811.00
725.38	756.50
725.50	810.38
725.62	820.62
725.74	806.50
725.85	799.62
725.97	808.38
726.09	866.62
726.21	1146.62
726.33	849.12
726.45	806.00
726.57	782.25
726.69	813.75
726.81	816.25
726.92	802.25
727.04	818.50
727.16	833.12
727.28	801.38
727.40	796.50
727.52	811.50
727.64	926.00
727.76	898.12
727.88	832.50
727.99	769.25
728.11	779.62
728.23	799.25
728.35	785.50
728.47	787.00
728.59	792.12
728.71	817.75
728.83	808.75
728.94	830.88
729.06	898.00
729.18	875.62
729.30	835.75
729.42	820.25
729.54	891.88
729.66	900.62
729.78	810.50
729.90	820.12
730.01	797.25
730.13	736.00
730.25	800.88
730.37	790.00
730.49	831.00
730.61	822.38
730.73	823.50
730.84	842.00
730.96	840.62
731.08	825.12
731.20	819.88
731.32	819.50
731.44	966.75
731.56	815.00
731.68	786.75
731.79	819.50
731.91	783.88
732.03	794.62
732.15	800.00
732.27	777.62
732.39	793.25
732.51	845.38
732.62	786.62
732.74	805.50
732.86	862.12
732.98	827.50
733.10	809.12
733.22	822.38
733.34	836.38
733.45	760.50
733.57	798.25
733.69	768.38
733.81	793.38
733.93	818.38
734.05	740.00
734.17	800.75
734.28	813.25
734.40	807.88
734.52	793.50
734.64	796.25
734.76	887.00
734.88	813.38
735.00	770.00
735.11	808.62
735.23	857.50
735.35	802.38
735.47	752.75
735.59	843.88
735.71	806.25
735.83	815.62
735.94	828.12
736.06	817.38
736.18	865.62
736.30	856.00
736.42	833.62
736.54	826.62
736.65	842.62
736.77	957.88
736.89	855.00
737.01	815.12
737.13	916.12
737.25	750.50
737.36	774.00
737.48	802.25
737.60	816.25
737.72	785.75
737.84	803.62
737.96	859.50
738.08	807.00
738.19	903.25
738.31	805.12
738.43	817.38
738.55	816.12
738.67	817.62
738.79	778.62
738.90	810.38
739.02	829.38
739.14	795.75
739.26	808.88
739.38	812.12
739.50	842.00
739.61	810.00
739.73	804.38
739.85	814.75
739.97	827.00
740.09	862.75
740.20	766.62
740.32	817.00
740.44	834.75
740.56	777.00
740.68	805.75
740.80	813.88
740.91	814.12
741.03	856.25
741.15	841.00
741.27	802.75
741.39	856.62
741.51	827.00
741.62	850.75
741.74	819.12
741.86	811.62
741.98	778.25
742.10	826.75
742.21	826.75
742.33	818.62
742.45	777.00
742.57	863.88
742.69	805.50
742.80	846.75
742.92	807.50
743.04	804.62
743.16	804.62
743.28	867.00
743.40	785.38
743.51	782.38
743.63	789.62
743.75	814.38
743.87	808.12
743.99	823.75
744.10	804.62
744.22	818.88
744.34	794.00
744.46	835.62
744.58	828.62
744.69	748.50
744.81	815.12
744.93	764.25
745.05	777.12
745.17	882.88
745.28	884.50
745.40	835.12
745.52	812.50
745.64	825.62
745.76	857.88
745.87	803.38
745.99	790.50
746.11	820.38
746.23	780.50
746.35	811.25
746.46	793.38
746.58	915.88
746.70	825.50
746.82	821.00
746.94	799.88
747.05	785.62
747.17	770.12
747.29	756.62
747.41	800.25
747.53	939.12
747.64	801.88
747.76	860.88
747.88	866.62
748.00	863.38
748.12	823.75
748.23	808.12
748.35	828.38
748.47	866.12
748.59	850.25
748.70	793.88
748.82	781.50
748.94	779.75
749.06	790.12
749.18	801.75
749.29	780.38
749.41	831.62
749.53	817.75
749.65	799.00
749.76	843.25
749.88	812.88
750.00	834.62
750.12	851.25
750.24	825.75
750.35	810.62
750.47	770.50
750.59	836.12
750.71	807.00
750.82	846.88
750.94	784.62
751.06	804.25
751.18	793.00
751.30	858.62
751.41	845.75
751.53	848.88
751.65	787.75
751.77	793.12
751.88	827.12
752.00	859.38
752.12	771.88
752.24	865.12
752.35	835.88
752.47	846.12
752.59	854.62
752.71	894.88
752.83	791.50
752.94	871.50
753.06	795.25
753.18	822.00
753.30	798.38
753.41	753.88
753.53	796.38
753.65	803.75
753.77	863.12
753.88	789.62
754.00	818.38
754.12	821.00
754.24	878.50
754.35	791.88
754.47	761.88
754.59	845.62
754.71	845.75
754.82	815.88
754.94	803.38
755.06	869.50
755.18	839.00
755.29	831.38
755.41	795.62
755.53	838.25
755.65	792.75
755.76	823.00
755.88	822.12
756.00	881.38
756.12	790.12
756.23	720.00
756.35	788.88
756.47	856.50
756.59	799.12
756.70	788.25
756.82	789.88
756.94	804.75
757.06	830.12
757.17	827.25
757.29	801.00
757.41	763.25
757.53	832.62
757.64	815.38
757.76	816.88
757.88	831.00
758.00	838.25
758.11	795.88
758.23	772.25
758.35	839.25
758.47	775.75
758.58	830.50
758.70	771.88
758.82	790.12
758.94	775.62
759.05	815.12
759.17	768.50
759.29	815.00
759.40	874.88
759.52	806.38
759.64	798.75
759.76	828.00
759.87	843.00
759.99	834.75
760.11	798.25
760.23	817.75
760.34	853.00
760.46	830.88
760.58	805.00
760.70	815.12
760.81	872.38
760.93	825.88
761.05	842.88
761.16	825.12
761.28	802.00
761.40	795.75
761.52	784.00
761.63	868.38
761.75	833.75
761.87	796.88
761.98	772.00
762.10	847.00
762.22	817.25
762.34	850.00
762.45	793.88
762.57	851.38
762.69	939.62
762.81	803.12
762.92	833.88
763.04	764.25
763.16	839.12
763.27	852.12
763.39	802.62
763.51	841.38
763.63	837.25
763.74	789.75
763.86	762.38
763.98	783.62
764.09	809.25
764.21	820.75
764.33	777.50
764.44	786.75
764.56	820.62
764.68	787.75
764.80	818.00
764.91	763.12
765.03	875.00
765.15	799.00
765.26	803.25
765.38	774.88
765.50	840.50
765.62	822.00
765.73	812.25
765.85	821.62
765.97	770.25
766.08	810.38
766.20	827.75
766.32	834.50
766.43	855.88
766.55	836.75
766.67	809.62
766.79	811.25
766.90	784.12
767.02	748.00
767.14	774.62
767.25	779.75
767.37	911.12
767.49	839.62
767.60	810.50
767.72	864.38
767.84	836.38
767.95	803.25
768.07	778.12
768.19	836.00
768.31	840.75
768.42	828.75
768.54	802.00
768.66	804.12
768.77	845.88
768.89	808.50
769.01	787.88
769.12	833.12
769.24	828.00
769.36	781.88
769.47	775.38
769.59	776.75
769.71	833.62
769.82	803.38
769.94	799.12
770.06	768.00
770.17	855.88
770.29	825.62
770.41	841.88
770.53	837.88
770.64	776.62
770.76	819.25
770.88	831.75
770.99	850.00
771.11	783.38
771.23	827.75
771.34	816.00
771.46	907.25
771.58	878.38
771.69	852.50
771.81	823.00
771.93	861.62
772.04	793.50
772.16	843.75
772.28	817.25
772.39	862.12
772.51	816.12
772.63	843.00
772.74	804.25
772.86	810.88
772.98	932.00
773.09	791.25
773.21	797.75
773.33	838.50
773.44	833.75
773.56	806.25
773.68	814.12
773.79	870.00
773.91	803.25
774.03	824.62
774.14	810.00
774.26	868.62
774.38	791.88
774.49	774.50
774.61	811.75
774.73	820.38
774.84	804.12
774.96	783.75
775.08	811.12
775.19	844.00
775.31	860.38
775.43	822.00
775.54	796.25
775.66	763.00
775.77	856.38
775.89	785.50
776.01	857.50
776.12	866.62
776.24	831.00
776.36	777.00
776.47	789.12
776.59	828.50
776.71	864.75
776.82	756.38
776.94	773.38
777.06	804.75
777.17	878.38
777.29	775.38
777.41	787.00
777.52	834.00
777.64	815.25
777.75	842.38
777.87	759.00
777.99	796.62
778.10	867.25
778.22	801.12
778.34	825.62
778.45	809.50
778.57	860.62
778.69	855.88
778.80	828.75
778.92	910.00
779.04	835.38
779.15	817.75
779.27	860.00
779.38	846.00
779.50	870.38
779.62	770.12
779.73	814.50
779.85	766.25
779.97	923.75
780.08	823.62
780.20	813.88
780.31	843.88
780.43	857.75
780.55	800.12
780.66	831.00
780.78	842.75
780.90	920.12
781.01	794.62
781.13	805.50
781.25	808.50
781.36	870.62
781.48	795.00
781.59	814.88
781.71	847.38
781.83	837.62
781.94	784.50
782.06	798.00
782.18	865.88
782.29	798.38
782.41	763.88
782.52	856.38
782.64	861.00
782.76	836.00
782.87	835.88
782.99	810.25
783.10	943.25
783.22	960.00
783.34	823.12
783.45	830.00
783.57	820.25
783.69	799.62
783.80	833.12
783.92	846.75
784.03	815.50
784.15	790.62
784.27	817.62
784.38	794.38
784.50	795.88
784.61	821.75
784.73	796.25
784.85	804.12
784.96	803.00
785.08	871.50
785.19	861.88
785.31	807.50
785.43	787.88
785.54	781.25
785.66	843.25
785.77	831.25
785.89	841.88
786.01	771.25
786.12	810.50
786.24	820.75
786.35	891.38
786.47	832.75
786.59	795.38
786.70	779.38
786.82	829.12
786.93	834.38
787.05	816.38
787.17	825.12
787.28	818.12
787.40	829.38
787.51	835.75
787.63	840.25
787.75	786.12
787.86	828.50
787.98	850.25
788.09	814.12
788.21	841.25
788.33	848.00
788.44	835.62
788.56	795.88
788.67	844.50
788.79	805.88
788.91	823.75
789.02	797.00
789.14	806.50
789.25	905.62
789.37	841.38
789.48	798.75
789.60	835.25
789.72	791.25
789.83	850.50
789.95	827.38
790.06	768.88
790.18	794.25
790.30	851.88
790.41	832.25
790.53	796.75
790.64	773.25
790.76	781.00
790.87	808.25
790.99	817.88
791.11	819.38
791.22	799.75
791.34	820.75
791.45	847.00
791.57	849.75
791.68	813.25
791.80	795.50
791.92	846.88
792.03	799.38
792.15	780.62
792.26	803.12
792.38	775.62
792.49	837.12
792.61	810.00
792.73	822.75
792.84	812.12
792.96	920.62
793.07	815.25
793.19	1596.62
793.30	903.12
793.42	853.88
793.54	753.38
793.65	772.25
793.77	945.00
793.88	807.00
794.00	769.00
794.11	809.50
794.23	754.38
794.34	824.00
794.46	757.00
794.58	768.75
794.69	899.75
794.81	900.50
794.92	785.88
795.04	783.62
795.15	891.50
795.27	855.12
795.39	817.25
795.50	793.62
795.62	784.25
795.73	801.75
795.85	783.38
795.96	827.25
796.08	875.75
796.19	796.00
796.31	809.75
796.42	777.62
796.54	790.75
796.66	850.25
796.77	775.62
796.89	767.88
797.00	864.12
797.12	743.88
797.23	795.50
797.35	824.88
797.46	849.25
797.58	868.50
797.69	831.75
797.81	808.12
797.93	808.50
798.04	795.50
798.16	788.25
798.27	827.88
798.39	782.25
798.50	771.62
798.62	772.12
798.73	771.62
798.85	891.62
798.96	816.75
799.08	839.25
799.19	852.38
799.31	822.62
799.43	817.38
799.54	795.88
799.66	823.88
799.77	848.88
799.89	788.12
800.00	759.62
800.12	805.88
800.23	867.38
800.35	894.75
800.46	757.25
800.58	741.00
800.69	806.62
800.81	799.88
800.92	772.62
801.04	810.62
801.16	750.88
801.27	755.00
801.39	774.88
801.50	792.88
801.62	809.12
801.73	856.50
801.85	850.62
801.96	772.75
802.08	868.25
802.19	862.25
802.31	799.88
802.42	812.00
802.54	884.88
802.65	861.12
802.77	775.62
802.88	839.25
803.00	767.25
803.11	920.12
803.23	821.75
803.34	811.00
803.46	834.00
803.57	780.75
803.69	844.25
803.80	775.62
803.92	861.50
804.03	807.12
804.15	830.25
804.26	841.25
804.38	850.38
804.50	778.25
804.61	819.88
804.73	814.50
804.84	818.88
804.96	746.12
805.07	806.62
805.19	777.62
805.30	829.00
805.42	858.50
805.53	809.50
805.65	787.12
805.76	764.88
805.88	793.00
805.99	821.50
806.11	838.00
806.22	786.75
806.34	797.25
806.45	813.38
806.57	792.38
806.68	839.88
806.80	741.88
806.91	771.88
807.03	766.75
807.14	751.00
807.26	760.12
807.37	766.75
807.49	823.75
807.60	788.00
807.72	881.12
807.83	890.25
807.95	822.62
808.06	829.12
808.17	824.38
808.29	842.50
808.40	776.75
808.52	808.38
808.63	823.88
808.75	825.38
808.86	811.12
808.98	838.62
809.09	791.12
809.21	832.75
809.32	791.25
809.44	835.12
809.55	772.75
809.67	826.00
809.78	778.88
809.90	836.12
810.01	869.62
810.13	791.25
810.24	841.38
810.36	773.38
810.47	840.88
810.59	817.50
810.70	840.25
810.82	856.25
810.93	772.88
811.05	780.38
811.16	790.75
811.27	793.88
811.39	820.50
811.50	856.88
811.62	765.12
811.73	747.25
811.85	829.12
811.96	817.38
812.08	839.88
812.19	822.62
812.31	835.62
812.42	809.88
812.54	792.25
812.65	850.38
812.77	860.12
812.88	854.12
813.00	844.50
813.11	834.25
813.22	787.50
813.34	794.25
813.45	817.50
813.57	894.75
813.68	904.50
813.80	822.50
813.91	779.88
814.03	804.38
814.14	898.75
814.26	796.00
814.37	811.75
814.49	812.75
814.60	797.00
814.71	787.38
814.83	816.00
814.94	776.00
815.06	802.50
815.17	813.62
815.29	812.88
815.40	781.25
815.52	903.50
815.63	807.75
815.75	793.00
815.86	828.88
815.97	777.75
816.09	818.88
816.20	836.50
816.32	843.12
816.43	767.50
816.55	828.62
816.66	806.88
816.78	904.12
816.89	810.75
817.00	812.38
817.12	791.00
817.23	782.25
817.35	858.38
817.46	825.75
817.58	785.88
817.69	900.88
817.81	819.50
817.92	846.12
818.03	818.38
818.15	824.25
818.26	788.62
818.38	777.00
818.49	806.62
818.61	834.00
818.72	779.12
818.83	1555.12
818.95	910.50
819.06	788.12
819.18	798.00
819.29	829.50
819.41	813.00
819.52	833.12
819.64	827.38
819.75	791.50
819.86	774.00
819.98	794.38
820.09	838.88
820.21	821.62
820.32	786.75
820.44	846.12
820.55	882.38
820.66	800.38
820.78	848.12
820.89	821.00
821.01	845.25
821.12	817.50
821.23	828.12
821.35	805.62
821.46	865.88
821.58	824.50
821.69	806.88
821.81	801.12
821.92	876.62
822.03	815.62
822.15	833.50
822.26	779.12
822.38	791.25
822.49	838.12
822.61	828.50
822.72	833.88
822.83	878.12
822.95	813.00
823.06	824.25
823.18	871.12
823.29	895.50
823.40	850.50
823.52	812.00
823.63	781.75
823.75	914.38
823.86	820.88
823.97	777.75
824.09	850.25
824.20	789.12
824.32	830.38
824.43	814.88
824.55	858.38
824.66	911.12
824.77	817.12
824.89	835.00
825.00	883.12
825.12	829.75
825.23	844.25
825.34	780.88
825.46	786.50
825.57	854.88
825.69	803.12
825.80	752.88
825.91	793.75
826.03	769.88
826.14	842.25
826.26	783.00
826.37	818.25
826.48	806.00
826.60	822.62
826.71	796.00
826.83	831.38
826.94	832.38
827.05	864.88
827.17	852.38
827.28	814.50
827.39	807.00
827.51	784.75
827.62	813.38
827.74	818.62
827.85	805.88
827.96	797.62
828.08	816.38
828.19	904.38
828.31	811.75
828.42	763.12
828.53	833.88
828.65	865.88
828.76	869.75
828.87	839.62
828.99	789.88
