Wavelength (nm)	Intensity
377.35	820.17
377.48	593.00
377.62	613.33
377.75	614.33
377.88	806.67
378.02	792.00
378.15	804.00
378.28	771.00
378.41	850.83
378.55	810.83
378.68	797.50
378.81	777.33
378.95	805.83
379.08	800.00
379.21	762.00
379.35	822.33
379.48	818.33
379.61	880.83
379.74	821.67
379.88	806.50
380.01	880.83
380.14	935.00
380.28	873.83
380.41	800.83
380.54	842.17
380.68	849.67
380.81	777.67
380.94	864.00
381.07	894.67
381.21	894.67
381.34	827.17
381.47	770.17
381.61	958.67
381.74	834.67
381.87	789.00
382.00	850.33
382.14	920.17
382.27	874.00
382.40	803.83
382.54	897.00
382.67	895.67
382.80	799.00
382.93	810.00
383.07	830.33
383.20	833.83
383.33	867.33
383.47	809.50
383.60	790.00
383.73	971.17
383.86	860.50
384.00	827.00
384.13	816.50
384.26	864.67
384.40	882.17
384.53	840.17
384.66	884.67
384.79	853.17
384.93	817.00
385.06	827.50
385.19	853.17
385.33	944.17
385.46	867.50
385.59	813.83
385.72	849.50
385.86	796.50
385.99	815.83
386.12	833.00
386.25	806.83
386.39	878.50
386.52	891.67
386.65	832.67
386.79	827.33
386.92	817.83
387.05	912.67
387.18	792.67
387.32	807.33
387.45	871.67
387.58	847.50
387.71	829.17
387.85	823.83
387.98	848.83
388.11	872.00
388.25	854.67
388.38	840.83
388.51	871.67
388.64	886.00
388.78	827.33
388.91	803.17
389.04	840.83
389.17	942.50
389.31	850.00
389.44	882.83
389.57	902.33
389.70	870.50
389.84	830.00
389.97	832.33
390.10	826.33
390.24	863.50
390.37	839.67
390.50	824.33
390.63	907.83
390.77	845.17
390.90	852.33
391.03	843.67
391.16	799.17
391.30	828.50
391.43	837.00
391.56	833.50
391.69	818.17
391.83	887.67
391.96	862.67
392.09	838.33
392.22	932.50
392.36	868.00
392.49	820.67
392.62	843.17
392.75	869.17
392.89	908.50
393.02	817.17
393.15	827.00
393.28	801.67
393.42	938.67
393.55	808.00
393.68	837.17
393.81	784.83
393.95	834.17
394.08	833.83
394.21	834.50
394.34	894.67
394.48	884.67
394.61	893.00
394.74	872.00
394.87	902.33
395.01	869.00
395.14	884.67
395.27	834.00
395.40	941.00
395.54	946.50
395.67	865.83
395.80	850.50
395.93	881.33
396.07	831.83
396.20	831.50
396.33	787.17
396.46	841.67
396.59	853.00
396.73	853.83
396.86	830.17
396.99	909.33
397.12	878.83
397.26	876.17
397.39	859.50
397.52	1137.17
397.65	962.00
397.79	860.00
397.92	849.00
398.05	915.83
398.18	846.17
398.32	854.67
398.45	883.83
398.58	878.67
398.71	891.67
398.84	831.83
398.98	862.00
399.11	892.17
399.24	886.00
399.37	851.17
399.51	831.33
399.64	866.17
399.77	863.17
399.90	866.17
400.03	870.83
400.17	828.67
400.30	923.00
400.43	891.83
400.56	869.17
400.70	870.33
400.83	845.83
400.96	839.33
401.09	878.33
401.23	871.17
401.36	934.67
401.49	854.33
401.62	873.50
401.75	863.67
401.89	837.83
402.02	860.50
402.15	868.00
402.28	892.50
402.41	894.00
402.55	855.00
402.68	867.17
402.81	936.00
402.94	913.33
403.08	850.17
403.21	839.83
403.34	905.33
403.47	903.83
403.60	863.00
403.74	899.50
403.87	907.50
404.00	857.50
404.13	856.83
404.26	833.83
404.40	845.17
404.53	887.00
404.66	866.33
404.79	849.17
404.93	919.00
405.06	863.83
405.19	825.83
405.32	890.17
405.45	898.83
405.59	921.33
405.72	882.00
405.85	851.17
405.98	1045.83
406.11	855.33
406.25	853.50
406.38	872.17
406.51	907.67
406.64	878.33
406.77	836.17
406.91	840.00
407.04	898.00
407.17	869.50
407.30	900.50
407.43	881.00
407.57	954.83
407.70	935.67
407.83	861.00
407.96	886.00
408.09	843.67
408.23	969.17
408.36	884.83
408.49	879.17
408.62	1001.33
408.75	900.33
408.89	867.00
409.02	900.67
409.15	895.50
409.28	966.50
409.41	920.67
409.55	876.67
409.68	1001.83
409.81	902.17
409.94	869.67
410.07	902.83
410.20	908.83
410.34	888.00
410.47	899.50
410.60	903.17
410.73	927.83
410.86	871.83
411.00	895.00
411.13	869.33
411.26	896.83
411.39	899.50
411.52	914.17
411.66	894.17
411.79	890.67
411.92	869.83
412.05	888.00
412.18	888.33
412.31	919.50
412.45	931.33
412.58	936.17
412.71	866.50
412.84	925.50
412.97	977.33
413.11	904.50
413.24	908.67
413.37	944.50
413.50	1009.00
413.63	918.50
413.76	896.00
413.90	932.67
414.03	893.50
414.16	894.83
414.29	924.00
414.42	910.67
414.56	1014.17
414.69	893.50
414.82	904.17
414.95	907.17
415.08	922.50
415.21	909.00
415.35	929.83
415.48	840.00
415.61	954.33
415.74	962.17
415.87	867.83
416.00	913.17
416.14	1021.00
416.27	924.83
416.40	884.67
416.53	915.67
416.66	944.50
416.79	927.17
416.93	885.67
417.06	972.17
417.19	916.33
417.32	904.50
417.45	904.00
417.58	878.33
417.72	965.67
417.85	902.50
417.98	914.33
418.11	958.50
418.24	902.00
418.37	904.00
418.51	914.33
418.64	918.83
418.77	989.67
418.90	937.17
419.03	884.17
419.16	942.00
419.29	966.83
419.43	896.17
419.56	881.17
419.69	1028.17
419.82	979.00
419.95	921.83
420.08	965.83
420.22	992.83
420.35	1049.83
420.48	973.17
420.61	923.17
420.74	878.00
420.87	967.17
421.00	882.83
421.14	918.17
421.27	962.00
421.40	1000.50
421.53	951.50
421.66	930.67
421.79	925.17
421.93	934.67
422.06	931.83
422.19	907.33
422.32	969.83
422.45	974.33
422.58	943.17
422.71	929.17
422.85	989.67
422.98	979.50
423.11	886.50
423.24	887.00
423.37	910.50
423.50	914.83
423.63	937.83
423.77	917.50
423.90	911.50
424.03	959.00
424.16	971.00
424.29	937.67
424.42	896.33
424.55	916.50
424.69	912.67
424.82	949.33
424.95	951.33
425.08	916.17
425.21	965.17
425.34	928.50
425.47	944.00
425.60	959.17
425.74	904.67
425.87	934.83
426.00	945.33
426.13	965.17
426.26	924.17
426.39	933.00
426.52	950.67
426.66	1020.17
426.79	974.67
426.92	922.83
427.05	1061.00
427.18	1025.67
427.31	957.83
427.44	952.83
427.57	922.00
427.71	948.33
427.84	915.33
427.97	956.00
428.10	1016.33
428.23	961.33
428.36	938.67
428.49	877.33
428.62	1084.50
428.76	1048.83
428.89	969.33
429.02	917.50
429.15	958.67
429.28	1047.67
429.41	949.33
429.54	969.83
429.67	951.00
429.81	990.33
429.94	965.00
430.07	947.67
430.20	1006.50
430.33	1033.00
430.46	936.67
430.59	937.00
430.72	974.50
430.85	924.33
430.99	971.67
431.12	936.00
431.25	1020.00
431.38	1050.67
431.51	978.83
431.64	970.83
431.77	1053.17
431.90	1050.17
432.03	982.17
432.17	949.00
432.30	988.67
432.43	998.33
432.56	976.33
432.69	1002.17
432.82	1002.33
432.95	1044.83
433.08	984.00
433.21	990.33
433.35	981.50
433.48	987.67
433.61	946.50
433.74	990.17
433.87	961.33
434.00	1014.00
434.13	960.50
434.26	1016.83
434.39	1005.17
434.53	1010.17
434.66	982.50
434.79	984.00
434.92	982.17
435.05	1060.67
435.18	979.33
435.31	1021.50
435.44	1061.83
435.57	1002.50
435.70	991.17
435.84	963.17
435.97	1059.33
436.10	1093.00
436.23	984.83
436.36	971.00
436.49	987.33
436.62	1019.50
436.75	993.50
436.88	1027.83
437.01	981.17
437.14	968.33
437.28	958.67
437.41	981.67
437.54	1058.83
437.67	1035.00
437.80	980.67
437.93	958.67
438.06	1118.83
438.19	1048.33
438.32	980.17
438.45	984.50
438.58	1037.67
438.72	1080.17
438.85	1050.67
438.98	1015.33
439.11	1028.67
439.24	1083.83
439.37	1072.00
439.50	1045.17
439.63	1070.67
439.76	1000.67
439.89	992.50
440.02	1003.67
440.15	1051.17
440.29	1090.17
440.42	1022.00
440.55	1019.33
440.68	1099.00
440.81	1143.67
440.94	1033.83
441.07	1030.17
441.20	1117.00
441.33	1052.67
441.46	1012.50
441.59	1008.17
441.72	1038.17
441.85	1034.33
441.99	1067.33
442.12	1062.00
442.25	1127.33
442.38	1062.33
442.51	1050.83
442.64	997.67
442.77	1043.50
442.90	1011.83
443.03	999.33
443.16	1026.17
443.29	1053.50
443.42	1110.83
443.55	1024.00
443.68	1049.67
443.82	1004.67
443.95	1025.50
444.08	1030.83
444.21	1041.50
444.34	1028.67
444.47	1039.33
444.60	1048.33
444.73	1067.00
444.86	1053.00
444.99	1122.50
445.12	1087.00
445.25	1066.67
445.38	1075.00
445.51	1110.67
445.64	1065.33
445.78	1040.83
445.91	1001.33
446.04	1175.17
446.17	1115.17
446.30	1016.67
446.43	1081.67
446.56	1076.67
446.69	1038.17
446.82	1054.50
446.95	1118.33
447.08	1124.83
447.21	1086.50
447.34	1055.83
447.47	1117.83
447.60	1111.17
447.73	1075.33
447.86	1113.00
447.99	1088.67
448.13	1095.50
448.26	1112.17
448.39	1073.67
448.52	1114.00
448.65	1130.00
448.78	1089.67
448.91	1089.17
449.04	1113.00
449.17	1073.33
449.30	1114.67
449.43	1104.50
449.56	1104.83
449.69	1163.17
449.82	1104.50
449.95	1051.00
450.08	1159.33
450.21	1133.83
450.34	1105.00
450.47	1091.83
450.60	1139.67
450.73	1112.67
450.87	1101.33
451.00	1113.50
451.13	1138.50
451.26	1255.00
451.39	1094.67
451.52	1135.67
451.65	1108.67
451.78	1103.17
451.91	1095.67
452.04	1095.83
452.17	1205.83
452.30	1197.67
452.43	1103.17
452.56	1113.50
452.69	1185.33
452.82	1092.83
452.95	1160.50
453.08	1097.00
453.21	1065.50
453.34	1177.33
453.47	1118.33
453.60	1183.17
453.73	1232.33
453.86	1169.67
453.99	1153.17
454.12	1150.33
454.25	1137.00
454.38	1164.17
454.52	1122.67
454.65	1134.17
454.78	1137.17
454.91	1093.83
455.04	1143.17
455.17	1126.50
455.30	1126.67
455.43	1214.67
455.56	1143.17
455.69	1130.67
455.82	1169.33
455.95	1181.17
456.08	1122.17
456.21	1129.33
456.34	1111.67
456.47	1109.33
456.60	1146.83
456.73	1140.83
456.86	1158.17
456.99	1202.50
457.12	1146.17
457.25	1159.83
457.38	1225.67
457.51	1209.83
457.64	1200.33
457.77	1176.83
457.90	1185.17
458.03	1177.17
458.16	1183.83
458.29	1189.50
458.42	1187.67
458.55	1146.33
458.68	1177.17
458.81	1188.83
458.94	1249.83
459.07	1300.00
459.20	1169.33
459.33	1177.33
459.46	1266.50
459.59	1303.00
459.72	1271.33
459.85	1207.00
459.98	1285.50
460.11	1249.67
460.24	1220.00
460.37	1176.00
460.50	1255.83
460.63	1237.67
460.76	1217.50
460.89	1232.00
461.02	1251.83
461.15	1270.50
461.28	1232.17
461.41	1233.17
461.54	1314.50
461.67	1218.17
461.80	1254.83
461.93	1288.67
462.06	1289.83
462.19	1319.33
462.32	1239.17
462.45	1232.67
462.58	1295.33
462.71	1254.17
462.84	1258.67
462.97	1198.17
463.10	1254.83
463.23	1278.83
463.36	1298.17
463.49	1279.33
463.62	1229.50
463.75	1300.67
463.88	1271.50
464.01	1292.00
464.14	1247.00
464.27	1376.50
464.40	1283.17
464.53	1291.50
464.66	1325.33
464.79	1308.17
464.92	1320.50
465.05	1280.33
465.18	1308.50
465.31	1312.17
465.44	1302.83
465.57	1301.50
465.70	1293.17
465.83	1432.33
465.96	1340.83
466.09	1322.50
466.22	1377.00
466.35	1363.67
466.48	1313.50
466.61	1320.00
466.74	1336.83
466.87	1377.17
467.00	1371.00
467.13	1374.00
467.26	1383.00
467.39	1314.67
467.52	1317.50
467.65	1353.17
467.78	1422.33
467.91	1370.00
468.04	1386.00
468.17	1357.17
468.30	1368.00
468.43	1337.17
468.56	1369.17
468.69	1413.17
468.82	1431.50
468.95	1362.67
469.08	1381.33
469.21	1400.17
469.34	1439.67
469.47	1518.67
469.60	1500.17
469.73	1426.17
469.86	1449.67
469.99	1471.67
470.11	1399.00
470.24	1424.00
470.37	1474.17
470.50	1441.33
470.63	1421.17
470.76	1454.33
470.89	1508.83
471.02	1561.83
471.15	1449.33
471.28	1466.67
471.41	1573.50
471.54	1511.83
471.67	1480.33
471.80	1441.33
471.93	1543.67
472.06	1515.17
472.19	1495.83
472.32	1481.33
472.45	1625.33
472.58	1571.00
472.71	1537.00
472.84	1511.83
472.97	1497.17
473.10	1489.67
473.23	1580.67
473.36	1505.50
473.49	1614.67
473.62	1601.83
473.74	1582.83
473.87	1587.50
474.00	1539.83
474.13	1557.33
474.26	1599.00
474.39	1628.33
474.52	1588.17
474.65	1602.17
474.78	1614.50
474.91	1567.83
475.04	1635.50
475.17	1738.17
475.30	1648.17
475.43	1646.67
475.56	1677.50
475.69	1628.00
475.82	1677.50
475.95	1621.00
476.08	1719.50
476.21	1657.67
476.34	1706.17
476.46	1702.50
476.59	1754.50
476.72	1681.17
476.85	1684.00
476.98	1664.17
477.11	1756.00
477.24	1705.67
477.37	1663.50
477.50	1702.83
477.63	1723.83
477.76	1707.83
477.89	1674.17
478.02	1692.00
478.15	1735.83
478.28	1737.00
478.41	1772.67
478.54	1743.50
478.66	1819.33
478.79	1758.67
478.92	1770.33
479.05	1795.17
479.18	1788.33
479.31	1782.33
479.44	1796.50
479.57	1781.83
479.70	1801.83
479.83	1834.83
479.96	1817.83
480.09	1857.00
480.22	1973.67
480.35	1960.67
480.48	1893.33
480.60	1876.00
480.73	1851.50
480.86	1906.17
480.99	1880.33
481.12	1877.83
481.25	1888.67
481.38	1958.33
481.51	1885.33
481.64	1913.00
481.77	1954.33
481.90	1912.50
482.03	1921.33
482.16	1919.33
482.29	1997.67
482.41	1956.00
482.54	1980.00
482.67	1935.00
482.80	1954.17
482.93	2017.00
483.06	1949.00
483.19	2036.33
483.32	2019.00
483.45	2006.50
483.58	2018.83
483.71	2038.17
483.84	2071.83
483.97	2038.00
484.09	2035.50
484.22	2022.50
484.35	2011.83
484.48	1995.67
484.61	2040.17
484.74	2053.17
484.87	2090.67
485.00	2043.33
485.13	2093.17
485.26	2053.67
485.39	2116.50
485.52	2103.17
485.64	2181.00
485.77	2142.33
485.90	2174.17
486.03	2081.67
486.16	2139.50
486.29	2094.83
486.42	2141.00
486.55	2168.00
486.68	2148.17
486.81	2189.83
486.94	2171.00
487.06	2152.50
487.19	2193.33
487.32	2209.00
487.45	2191.00
487.58	2176.83
487.71	2199.33
487.84	2159.67
487.97	2240.50
488.10	2252.33
488.23	2212.67
488.35	2182.67
488.48	2214.67
488.61	2193.50
488.74	2237.83
488.87	2236.00
489.00	2262.00
489.13	2362.67
489.26	2307.50
489.39	2306.33
489.52	2312.17
489.64	2315.00
489.77	2312.50
489.90	2300.33
490.03	2308.67
490.16	2287.00
490.29	2292.67
490.42	2295.33
490.55	2338.17
490.68	2302.50
490.81	2315.50
490.93	2297.00
491.06	2405.83
491.19	2374.67
491.32	2369.33
491.45	2399.17
491.58	2329.00
491.71	2391.00
491.84	2370.33
491.97	2368.83
492.09	2463.83
492.22	2423.17
492.35	2422.67
492.48	2452.83
492.61	2428.50
492.74	2418.33
492.87	2445.17
493.00	2425.50
493.12	2399.67
493.25	2457.17
493.38	2428.67
493.51	2419.83
493.64	2424.67
493.77	2462.67
493.90	2508.67
494.03	2504.33
494.16	2546.50
494.28	2549.67
494.41	2494.17
494.54	2510.17
494.67	2621.67
494.80	2589.67
494.93	2517.00
495.06	2553.33
495.19	2559.17
495.31	2528.17
495.44	2521.17
495.57	2526.00
495.70	2569.83
495.83	2550.00
495.96	2528.33
496.09	2579.67
496.22	2635.33
496.34	2671.00
496.47	2565.33
496.60	2602.67
496.73	2633.83
496.86	2628.17
496.99	2587.83
497.12	2613.50
497.24	2578.50
497.37	2625.17
497.50	2608.17
497.63	2611.00
497.76	2639.67
497.89	2717.33
498.02	2675.67
498.15	2596.00
498.27	2671.17
498.40	2708.67
498.53	2739.67
498.66	2708.50
498.79	2724.83
498.92	2669.50
499.05	2710.17
499.17	2714.83
499.30	2753.17
499.43	2794.33
499.56	2747.67
499.69	2672.17
499.82	2742.50
499.95	2720.33
500.07	2725.17
500.20	2756.50
500.33	2774.67
500.46	2883.33
500.59	2781.00
500.72	2791.33
500.85	2838.50
500.97	2818.17
501.10	2832.33
501.23	2772.67
501.36	2790.50
501.49	2861.83
501.62	2837.67
501.75	2819.83
501.87	2872.17
502.00	2781.33
502.13	2849.50
502.26	2846.33
502.39	2823.50
502.52	2828.83
502.64	2779.67
502.77	2834.67
502.90	2898.83
503.03	2873.83
503.16	2855.17
503.29	2843.00
503.42	2944.33
503.54	2897.17
503.67	2909.50
503.80	2906.33
503.93	2964.00
504.06	2872.33
504.19	2922.33
504.31	2980.17
504.44	2954.33
504.57	2949.00
504.70	2953.83
504.83	2895.50
504.96	2972.67
505.08	2956.17
505.21	2973.17
505.34	3049.67
505.47	3026.50
505.60	3007.83
505.73	3043.50
505.85	3033.50
505.98	3133.17
506.11	3009.83
506.24	2971.67
506.37	2995.67
506.50	3025.33
506.62	3063.00
506.75	3025.50
506.88	2996.50
507.01	3046.50
507.14	3009.50
507.27	3040.17
507.39	2999.00
507.52	3056.33
507.65	3046.50
507.78	3084.50
507.91	3038.83
508.04	3135.67
508.16	3118.17
508.29	3111.67
508.42	3096.83
508.55	3079.00
508.68	3087.00
508.81	3168.33
508.93	3107.67
509.06	3121.67
509.19	3162.83
509.32	3178.00
509.45	3146.67
509.57	3158.50
509.70	3126.50
509.83	3163.17
509.96	3125.33
510.09	3164.00
510.22	3160.50
510.34	3196.67
510.47	3166.00
510.60	3279.33
510.73	3226.67
510.86	3246.33
510.98	3200.67
511.11	3186.00
511.24	3280.83
511.37	3253.83
511.50	3213.67
511.63	3236.67
511.75	3240.33
511.88	3244.17
512.01	3269.67
512.14	3249.17
512.27	3284.50
512.39	3270.17
512.52	3251.83
512.65	3291.17
512.78	3250.67
512.91	3275.67
513.03	3308.83
513.16	3348.33
513.29	3326.67
513.42	3298.17
513.55	3258.83
513.67	3337.33
513.80	3271.33
513.93	3294.33
514.06	3323.83
514.19	3363.33
514.31	3369.33
514.44	3391.50
514.57	3362.83
514.70	3378.83
514.83	3419.17
514.95	3356.50
515.08	3395.00
515.21	3425.17
515.34	3409.00
515.47	3391.50
515.59	3381.17
515.72	3428.83
515.85	3433.50
515.98	3477.67
516.11	3416.17
516.23	3474.33
516.36	3500.50
516.49	3482.50
516.62	3447.33
516.75	3516.33
516.87	3529.00
517.00	3435.67
517.13	3496.33
517.26	3540.83
517.39	3500.00
517.51	3431.17
517.64	3493.00
517.77	3564.50
517.90	3467.50
518.02	3498.33
518.15	3487.67
518.28	3438.67
518.41	3501.17
518.54	3539.00
518.66	3535.50
518.79	3495.50
518.92	3518.83
519.05	3521.33
519.18	3527.33
519.30	3596.83
519.43	3524.67
519.56	3533.17
519.69	3570.00
519.81	3609.50
519.94	3556.17
520.07	3515.50
520.20	3581.00
520.33	3617.83
520.45	3648.67
520.58	3612.83
520.71	3635.33
520.84	3664.50
520.96	3647.50
521.09	3618.00
521.22	3597.67
521.35	3669.50
521.48	3684.33
521.60	3631.00
521.73	3652.17
521.86	3726.17
521.99	3745.83
522.11	3665.67
522.24	3666.83
522.37	3706.67
522.50	3681.50
522.62	3734.67
522.75	3615.17
522.88	3700.33
523.01	3687.83
523.14	3720.00
523.26	3716.00
523.39	3788.33
523.52	3681.83
523.65	3794.33
523.77	3748.67
523.90	3750.50
524.03	3720.33
524.16	3711.33
524.28	3718.67
524.41	3707.17
524.54	3736.33
524.67	3710.83
524.79	3742.83
524.92	3788.50
525.05	3826.00
525.18	3755.33
525.31	3809.33
525.43	3750.33
525.56	3900.83
525.69	3801.83
525.82	3729.83
525.94	3848.83
526.07	3838.83
526.20	3840.50
526.33	3843.83
526.45	3946.50
526.58	3900.17
526.71	3840.17
526.84	3817.50
526.96	3853.67
527.09	3804.67
527.22	3834.67
527.35	3832.33
527.47	3817.00
527.60	3912.17
527.73	3829.00
527.86	3902.83
527.98	3896.17
528.11	3895.83
528.24	3851.17
528.37	3894.17
528.49	3851.17
528.62	3889.17
528.75	3925.83
528.88	3870.00
529.00	3931.67
529.13	3944.50
529.26	3915.00
529.39	3945.83
529.51	4057.33
529.64	4003.50
529.77	3922.17
529.90	3905.33
530.02	3922.17
530.15	3919.83
530.28	3877.50
530.40	3921.33
530.53	3955.00
530.66	3957.83
530.79	3958.00
530.91	3970.67
531.04	3941.00
531.17	3958.17
531.30	3967.00
531.42	3987.67
531.55	3987.67
531.68	4044.17
531.81	3982.67
531.93	3978.17
532.06	4013.50
532.19	3977.00
532.31	4017.17
532.44	4013.83
532.57	4062.83
532.70	4017.50
532.82	4040.83
532.95	4055.50
533.08	4112.17
533.21	4071.50
533.33	4036.00
533.46	4041.50
533.59	4049.00
533.71	4172.17
533.84	4091.17
533.97	4062.17
534.10	4045.67
534.22	4070.33
534.35	4086.17
534.48	4073.50
534.61	4132.50
534.73	4038.67
534.86	4062.00
534.99	4125.67
535.11	4191.83
535.24	4119.17
535.37	4091.83
535.50	4082.67
535.62	4123.83
535.75	4181.67
535.88	4118.83
536.00	4123.17
536.13	4111.00
536.26	4142.50
536.39	4147.17
536.51	4106.83
536.64	4191.83
536.77	4158.17
536.89	4172.00
537.02	4197.67
537.15	4210.17
537.28	4172.17
537.40	4207.33
537.53	4182.50
537.66	4251.33
537.78	4232.50
537.91	4189.50
538.04	4200.00
538.17	4266.50
538.29	4239.83
538.42	4317.83
538.55	4276.00
538.67	4260.50
538.80	4225.67
538.93	4266.50
539.05	4272.67
539.18	4342.83
539.31	4307.33
539.44	4289.00
539.56	4210.83
539.69	4268.67
539.82	4250.50
539.94	4222.17
540.07	4265.83
540.20	4356.17
540.32	4271.17
540.45	4304.67
540.58	4311.00
540.71	4354.33
540.83	4259.50
540.96	4302.33
541.09	4317.17
541.21	4410.00
541.34	4388.50
541.47	4317.50
541.59	4348.17
541.72	4419.17
541.85	4496.17
541.98	4419.67
542.10	4359.50
542.23	4362.83
542.36	4464.17
542.48	4369.83
542.61	4348.83
542.74	4340.33
542.86	4378.67
542.99	4382.17
543.12	4383.67
543.24	4426.83
543.37	4365.00
543.50	4395.83
543.62	4393.00
543.75	4420.17
543.88	4403.00
544.01	4427.83
544.13	4450.67
544.26	4466.67
544.39	4400.50
544.51	4440.33
544.64	4413.67
544.77	4460.83
544.89	4423.33
545.02	4456.83
545.15	4457.50
545.27	4538.67
545.40	4532.83
545.53	4500.67
545.65	4486.00
545.78	4424.33
545.91	4451.83
546.03	4454.33
546.16	4497.33
546.29	4479.50
546.41	4460.17
546.54	4494.83
546.67	4486.50
546.79	4551.67
546.92	4571.00
547.05	4478.17
547.17	4512.67
547.30	4513.67
547.43	4551.50
547.56	4509.50
547.68	4545.67
547.81	4506.50
547.94	4540.00
548.06	4562.00
548.19	4535.83
548.32	4601.50
548.44	4546.83
548.57	4582.17
548.70	4611.67
548.82	4597.83
548.95	4580.00
549.08	4611.50
549.20	4588.00
549.33	4644.00
549.45	4591.83
549.58	4576.17
549.71	4520.83
549.83	4657.33
549.96	4563.33
550.09	4614.33
550.21	4590.67
550.34	4642.17
550.47	4592.00
550.59	4642.83
550.72	4555.33
550.85	4639.33
550.97	4705.83
551.10	4617.33
551.23	4636.33
551.35	4741.33
551.48	4697.83
551.61	4642.17
551.73	4650.17
551.86	4750.83
551.99	4737.50
552.11	4691.67
552.24	4701.00
552.37	4705.83
552.49	4689.00
552.62	4694.50
552.75	4726.17
552.87	4691.50
553.00	4694.67
553.12	4727.83
553.25	4705.50
553.38	4757.67
553.50	4780.17
553.63	4750.67
553.76	4692.83
553.88	4777.17
554.01	4739.17
554.14	4743.00
554.26	4789.83
554.39	4849.00
554.52	4785.17
554.64	4778.50
554.77	4784.33
554.89	4823.50
555.02	4844.50
555.15	4818.50
555.27	4813.83
555.40	4825.83
555.53	4880.83
555.65	4814.17
555.78	4804.50
555.91	4866.50
556.03	4913.83
556.16	4814.33
556.29	4819.83
556.41	4903.50
556.54	4929.17
556.66	4881.50
556.79	4853.50
556.92	4889.50
557.04	4904.83
557.17	4868.83
557.30	4860.50
557.42	4910.33
557.55	4894.33
557.67	4908.00
557.80	4929.50
557.93	4930.83
558.05	4925.83
558.18	4889.17
558.31	4924.50
558.43	5000.83
558.56	4967.00
558.68	4938.33
558.81	4907.33
558.94	4965.50
559.06	5046.33
559.19	4962.67
559.32	4959.33
559.44	4955.83
559.57	4962.83
559.69	4968.33
559.82	4969.67
559.95	4975.33
560.07	4976.17
560.20	4949.00
560.33	4999.33
560.45	5021.17
560.58	4989.33
560.70	5025.83
560.83	4972.17
560.96	5001.00
561.08	5017.00
561.21	5074.50
561.33	5030.33
561.46	4994.17
561.59	5086.67
561.71	5039.33
561.84	5049.83
561.97	5043.33
562.09	5129.17
562.22	5047.00
562.34	5057.17
562.47	5126.17
562.60	5101.33
562.72	5076.50
562.85	5103.67
562.97	5112.83
563.10	5098.33
563.23	5080.00
563.35	5087.50
563.48	5131.67
563.60	5120.50
563.73	5130.33
563.86	5096.83
563.98	5103.50
564.11	5136.67
564.23	5139.50
564.36	5193.17
564.49	5157.83
564.61	5196.17
564.74	5169.50
564.86	5130.33
564.99	5230.17
565.12	5222.83
565.24	5249.17
565.37	5228.17
565.49	5234.50
565.62	5268.83
565.75	5237.83
565.87	5166.50
566.00	5331.50
566.12	5247.83
566.25	5197.50
566.38	5257.00
566.50	5206.17
566.63	5233.50
566.75	5250.50
566.88	5225.33
567.01	5189.50
567.13	5197.00
567.26	5248.83
567.38	5224.00
567.51	5293.17
567.64	5229.17
567.76	5282.50
567.89	5265.83
568.01	5251.50
568.14	5205.83
568.26	5277.00
568.39	5264.67
568.52	5263.83
568.64	5308.67
568.77	5270.83
568.89	5274.00
569.02	5295.00
569.15	5263.67
569.27	5276.83
569.40	5306.67
569.52	5329.67
569.65	5292.50
569.77	5274.17
569.90	5262.50
570.03	5256.17
570.15	5351.00
570.28	5296.67
570.40	5312.00
570.53	5321.83
570.66	5377.17
570.78	5372.83
570.91	5306.33
571.03	5286.83
571.16	5312.17
571.28	5278.83
571.41	5260.83
571.54	5295.33
571.66	5251.17
571.79	5299.67
571.91	5290.50
572.04	5291.50
572.16	5338.33
572.29	5363.67
572.42	5296.33
572.54	5351.33
572.67	5318.33
572.79	5374.83
572.92	5351.33
573.04	5351.17
573.17	5368.33
573.29	5332.50
573.42	5336.67
573.55	5397.17
573.67	5381.83
573.80	5376.83
573.92	5349.50
574.05	5337.17
574.17	5395.67
574.30	5369.00
574.43	5361.17
574.55	5333.50
574.68	5377.33
574.80	5343.17
574.93	5347.33
575.05	5372.33
575.18	5344.17
575.30	5374.17
575.43	5394.83
575.56	5415.67
575.68	5384.17
575.81	5383.83
575.93	5341.67
576.06	5410.67
576.18	5420.67
576.31	5371.50
576.43	5360.50
576.56	5483.00
576.69	5420.67
576.81	5415.83
576.94	5391.83
577.06	5402.83
577.19	5428.50
577.31	5421.83
577.44	5411.67
577.56	5446.67
577.69	5383.67
577.82	5439.83
577.94	5394.50
578.07	5361.67
578.19	5427.83
578.32	5454.83
578.44	5396.50
578.57	5391.17
578.69	5421.33
578.82	5435.00
578.94	5457.67
579.07	5474.17
579.19	5473.50
579.32	5438.17
579.45	5421.67
579.57	5419.50
579.70	5394.00
579.82	5433.50
579.95	5419.00
580.07	5485.17
580.20	5428.50
580.32	5459.50
580.45	5470.33
580.57	5471.67
580.70	5467.17
580.82	5486.17
580.95	5489.50
581.08	5383.67
581.20	5504.50
581.33	5448.33
581.45	5450.33
581.58	5439.17
581.70	5441.50
581.83	5364.67
581.95	5456.17
582.08	5489.83
582.20	5451.50
582.33	5471.00
582.45	5413.33
582.58	5440.83
582.70	5462.33
582.83	5466.17
582.95	5448.50
583.08	5490.83
583.21	5502.50
583.33	5489.33
583.46	5449.17
583.58	5420.50
583.71	5466.33
583.83	5479.83
583.96	5480.83
584.08	5528.67
584.21	5509.83
584.33	5503.17
584.46	5455.00
584.58	5423.00
584.71	5489.00
584.83	5516.00
584.96	5482.00
585.08	5476.83
585.21	5557.17
585.33	5552.67
585.46	5510.00
585.58	5520.50
585.71	5468.00
585.83	5491.67
585.96	5534.50
586.08	5497.00
586.21	5530.17
586.33	5545.50
586.46	5449.00
586.59	5537.50
586.71	5471.83
586.84	5535.83
586.96	5509.83
587.09	5455.83
587.21	5480.17
587.34	5537.17
587.46	5505.17
587.59	5477.33
587.71	5490.50
587.84	5474.67
587.96	5490.17
588.09	5477.17
588.21	5518.17
588.34	5510.83
588.46	5553.50
588.59	5514.50
588.71	5540.33
588.84	5531.50
588.96	5547.67
589.09	5592.17
589.21	5556.50
589.34	5499.50
589.46	5538.33
589.59	5519.83
589.71	5550.33
589.84	5485.33
589.96	5476.83
590.09	5505.50
590.21	5537.83
590.34	5543.83
590.46	5512.00
590.59	5480.00
590.71	5517.33
590.84	5563.67
590.96	5507.67
591.09	5561.50
591.21	5531.00
591.34	5540.50
591.46	5518.17
591.59	5597.83
591.71	5556.33
591.83	5529.50
591.96	5489.00
592.08	5560.67
592.21	5581.83
592.33	5574.33
592.46	5533.00
592.58	5561.83
592.71	5582.50
592.83	5621.83
592.96	5583.83
593.08	5595.83
593.21	5545.33
593.33	5496.50
593.46	5545.00
593.58	5544.33
593.71	5583.17
593.83	5575.83
593.96	5488.83
594.08	5642.17
594.21	5582.17
594.33	5549.33
594.46	5530.33
594.58	5513.83
594.71	5486.00
594.83	5555.33
594.96	5537.00
595.08	5677.83
595.20	5609.33
595.33	5605.50
595.45	5529.33
595.58	5654.00
595.70	5594.17
595.83	5542.17
595.95	5586.67
596.08	5560.50
596.20	5539.00
596.33	5507.00
596.45	5559.00
596.58	5550.67
596.70	5546.50
596.83	5540.67
596.95	5546.17
597.08	5592.83
597.20	5542.17
597.32	5571.67
597.45	5578.00
597.57	5593.33
597.70	5579.67
597.82	5557.00
597.95	5584.83
598.07	5575.00
598.20	5616.50
598.32	5599.17
598.45	5598.33
598.57	5632.17
598.70	5655.33
598.82	5590.00
598.94	5570.33
599.07	5626.00
599.19	5585.00
599.32	5565.83
599.44	5491.50
599.57	5614.33
599.69	5605.00
599.82	5595.33
599.94	5553.00
600.07	5627.67
600.19	5608.67
600.31	5561.17
600.44	5633.00
600.56	5703.83
600.69	5673.17
600.81	5599.33
600.94	5576.83
601.06	5620.50
601.19	5617.83
601.31	5631.67
601.44	5539.67
601.56	5658.83
601.68	5647.50
601.81	5621.33
601.93	5588.67
602.06	5647.83
602.18	5557.83
602.31	5566.50
602.43	5647.50
602.56	5609.17
602.68	5601.33
602.80	5595.50
602.93	5615.83
603.05	5569.17
603.18	5625.83
603.30	5560.83
603.43	5582.50
603.55	5588.00
603.68	5634.67
603.80	5635.33
603.92	5636.17
604.05	5605.33
604.17	5602.17
604.30	5583.17
604.42	5565.83
604.55	5629.83
604.67	5642.00
604.79	5595.00
604.92	5614.50
605.04	5612.17
605.17	5589.33
605.29	5592.83
605.42	5598.67
605.54	5685.33
605.66	5616.00
605.79	5662.33
605.91	5616.00
606.04	5642.00
606.16	5572.00
606.29	5642.83
606.41	5616.00
606.53	5639.50
606.66	5563.00
606.78	5616.33
606.91	5599.83
607.03	5617.17
607.16	5619.17
607.28	5595.67
607.40	5637.00
607.53	5649.50
607.65	5566.67
607.78	5606.67
607.90	5620.67
608.03	5722.83
608.15	5626.33
608.27	5667.50
608.40	5630.00
608.52	5667.17
608.65	5650.17
608.77	5664.83
608.89	5618.33
609.02	5711.67
609.14	5710.00
609.27	5666.17
609.39	5684.50
609.52	5590.83
609.64	5549.00
609.76	5640.50
609.89	5628.50
610.01	5682.50
610.14	5658.67
610.26	5618.33
610.38	5623.50
610.51	5666.67
610.63	5634.83
610.76	5626.17
610.88	5647.00
611.01	5686.17
611.13	5743.33
611.25	5708.00
611.38	5633.17
611.50	5643.50
611.63	5668.33
611.75	5676.50
611.87	5667.50
612.00	5633.00
612.12	5697.17
612.25	5644.83
612.37	5614.67
612.49	5691.67
612.62	5687.83
612.74	5710.50
612.87	5654.00
612.99	5649.17
613.11	5597.00
613.24	5622.17
613.36	5644.33
613.49	5658.83
613.61	5650.17
613.73	5648.50
613.86	5690.83
613.98	5622.17
614.11	5704.67
614.23	5717.33
614.35	5695.33
614.48	5665.50
614.60	5653.50
614.72	5621.17
614.85	5631.17
614.97	5636.67
615.10	5665.33
615.22	5639.33
615.34	5667.83
615.47	5679.33
615.59	5620.33
615.72	5640.50
615.84	5647.33
615.96	5640.17
616.09	5737.67
616.21	5662.50
616.34	5642.17
616.46	5650.50
616.58	5643.67
616.71	5663.17
616.83	5641.83
616.95	5697.33
617.08	5668.33
617.20	5629.17
617.33	5594.00
617.45	5634.00
617.57	5669.83
617.70	5676.17
617.82	5636.50
617.95	5653.50
618.07	5715.83
618.19	5659.00
618.32	5655.00
618.44	5651.83
618.56	5617.17
618.69	5599.83
618.81	5572.00
618.94	5666.17
619.06	5610.00
619.18	5657.00
619.31	5586.50
619.43	5607.33
619.55	5665.67
619.68	5661.00
619.80	5615.83
619.92	5644.67
620.05	5764.50
620.17	5719.67
620.30	5631.67
620.42	5619.33
620.54	5696.33
620.67	5626.83
620.79	5655.50
620.91	5640.17
621.04	5660.50
621.16	5613.33
621.29	5644.00
621.41	5576.33
621.53	5629.67
621.66	5627.50
621.78	5632.33
621.90	5693.00
622.03	5707.67
622.15	5643.67
622.27	5649.83
622.40	5638.83
622.52	5601.50
622.64	5616.33
622.77	5585.17
622.89	5657.50
623.02	5677.50
623.14	5639.83
623.26	5661.33
623.39	5646.17
623.51	5680.50
623.63	5626.50
623.76	5582.83
623.88	5677.17
624.00	5618.50
624.13	5589.50
624.25	5638.50
624.37	5582.00
624.50	5645.33
624.62	5640.17
624.75	5579.17
624.87	5568.83
624.99	5668.50
625.12	5596.00
625.24	5597.83
625.36	5708.00
625.49	5623.33
625.61	5623.50
625.73	5607.33
625.86	5661.83
625.98	5608.17
626.10	5598.67
626.23	5558.17
626.35	5635.17
626.47	5595.50
626.60	5579.50
626.72	5577.83
626.84	5600.67
626.97	5637.33
627.09	5595.67
627.21	5629.67
627.34	5713.00
627.46	5704.83
627.58	5604.17
627.71	5604.17
627.83	5656.67
627.95	5540.83
628.08	5610.00
628.20	5610.33
628.32	5552.50
628.45	5492.17
628.57	5532.83
628.69	5545.17
628.82	5615.83
628.94	5625.17
629.06	5582.67
629.19	5565.17
629.31	5595.50
629.43	5513.83
629.56	5577.50
629.68	5565.50
629.80	5610.17
629.93	5552.00
630.05	5565.83
630.17	5531.33
630.30	5598.50
630.42	5564.17
630.54	5611.67
630.67	5581.33
630.79	5560.00
630.91	5665.33
631.04	5602.00
631.16	5600.00
631.28	5566.33
631.41	5516.83
631.53	5526.17
631.65	5553.67
631.78	5579.83
631.90	5568.17
632.02	5587.50
632.14	5460.67
632.27	5598.00
632.39	5554.67
632.51	5529.17
632.64	5596.00
632.76	5536.83
632.88	5509.83
633.01	5529.67
633.13	5510.67
633.25	5560.33
633.38	5662.50
633.50	5487.50
633.62	5512.17
633.75	5475.50
633.87	5465.33
633.99	5545.50
634.11	5496.33
634.24	5527.83
634.36	5542.00
634.48	5544.33
634.61	5506.00
634.73	5566.67
634.85	5476.17
634.98	5505.67
635.10	5517.67
635.22	5528.33
635.35	5631.17
635.47	5534.33
635.59	5502.00
635.71	5536.67
635.84	5539.50
635.96	5525.67
636.08	5540.83
636.21	5481.33
636.33	5529.67
636.45	5514.33
636.58	5476.00
636.70	5463.00
636.82	5537.67
636.94	5495.33
637.07	5432.83
637.19	5561.83
637.31	5507.83
637.44	5525.17
637.56	5457.83
637.68	5517.67
637.81	5505.67
637.93	5495.33
638.05	5451.67
638.17	5541.83
638.30	5611.50
638.42	5492.67
638.54	5469.67
638.67	5497.50
638.79	5514.67
638.91	5475.17
639.03	5446.17
639.16	5465.67
639.28	5483.67
639.40	5509.17
639.53	5451.67
639.65	5521.83
639.77	5482.33
639.89	5503.50
640.02	5474.67
640.14	5487.83
640.26	5435.50
640.39	5489.00
640.51	5444.83
640.63	5479.00
640.75	5513.00
640.88	5465.50
641.00	5438.33
641.12	5437.50
641.24	5506.00
641.37	5446.17
641.49	5441.33
641.61	5562.67
641.74	5415.67
641.86	5484.83
641.98	5461.00
642.10	5487.67
642.23	5464.33
642.35	5434.50
642.47	5475.17
642.60	5475.33
642.72	5484.00
642.84	5407.00
642.96	5389.33
643.09	5412.33
643.21	5416.50
643.33	5414.50
643.45	5404.67
643.58	5480.67
643.70	5526.33
643.82	5439.67
643.94	5441.67
644.07	5464.33
644.19	5469.00
644.31	5456.33
644.44	5457.33
644.56	5405.17
644.68	5418.33
644.80	5397.67
644.93	5398.50
645.05	5414.83
645.17	5452.17
645.29	5424.50
645.42	5441.33
645.54	5432.00
645.66	5446.83
645.78	5422.00
645.91	5390.17
646.03	5423.17
646.15	5519.67
646.27	5409.33
646.40	5432.00
646.52	5449.83
646.64	5428.33
646.76	5409.17
646.89	5386.83
647.01	5444.67
647.13	5451.00
647.25	5477.33
647.38	5400.33
647.50	5404.67
647.62	5458.00
647.74	5360.83
647.87	5365.33
647.99	5433.33
648.11	5446.33
648.23	5412.00
648.36	5335.33
648.48	5420.67
648.60	5402.50
648.72	5379.33
648.85	5351.33
648.97	5434.33
649.09	5420.67
649.21	5414.33
649.34	5420.17
649.46	5452.83
649.58	5423.17
649.70	5428.67
649.83	5382.83
649.95	5455.17
650.07	5426.33
650.19	5413.67
650.32	5420.83
650.44	5426.83
650.56	5413.83
650.68	5386.17
650.81	5385.67
650.93	5383.17
651.05	5436.17
651.17	5355.17
651.29	5385.83
651.42	5373.17
651.54	5401.50
651.66	5338.00
651.78	5338.33
651.91	5451.17
652.03	5508.83
652.15	5422.67
652.27	5356.67
652.40	5377.83
652.52	5355.50
652.64	5371.83
652.76	5370.17
652.88	5456.17
653.01	5351.00
653.13	5318.33
653.25	5286.50
653.37	5375.83
653.50	5392.83
653.62	5403.00
653.74	5343.67
653.86	5416.33
653.98	5386.83
654.11	5345.67
654.23	5320.50
654.35	5314.67
654.47	5448.83
654.60	5357.83
654.72	5339.33
654.84	5289.83
654.96	5388.17
655.08	5327.17
655.21	5350.50
655.33	5342.50
655.45	5392.00
655.57	5353.00
655.70	5352.83
655.82	5382.17
655.94	5391.17
656.06	5350.33
656.18	5299.50
656.31	5373.50
656.43	5345.33
656.55	5294.50
656.67	5327.67
656.79	5328.17
656.92	5386.17
657.04	5330.33
657.16	5283.67
657.28	5420.83
657.40	5320.33
657.53	5364.83
657.65	5279.83
657.77	5349.50
657.89	5350.33
658.01	5260.00
658.14	5267.33
658.26	5321.83
658.38	5280.67
658.50	5275.83
658.62	5278.00
658.75	5392.17
658.87	5326.83
658.99	5345.00
659.11	5254.33
659.23	5353.67
659.36	5415.00
659.48	5356.33
659.60	5331.00
659.72	5310.00
659.84	5280.83
659.97	5328.00
660.09	5307.83
660.21	5394.67
660.33	5315.00
660.45	5232.00
660.58	5206.83
660.70	5248.17
660.82	5237.17
660.94	5212.83
661.06	5280.00
661.19	5338.33
661.31	5288.67
661.43	5271.50
661.55	5255.00
661.67	5311.33
661.80	5330.00
661.92	5241.50
662.04	5269.67
662.16	5256.00
662.28	5303.00
662.40	5245.17
662.53	5246.83
662.65	5267.00
662.77	5219.00
662.89	5246.17
663.01	5225.67
663.14	5213.33
663.26	5267.00
663.38	5216.00
663.50	5172.33
663.62	5213.00
663.74	5227.67
663.87	5224.67
663.99	5234.83
664.11	5257.83
664.23	5328.33
664.35	5180.00
664.48	5204.50
664.60	5197.83
664.72	5193.00
664.84	5180.83
664.96	5188.50
665.08	5269.00
665.21	5180.50
665.33	5206.50
665.45	5135.33
665.57	5189.00
665.69	5250.17
665.81	5172.17
665.94	5136.00
666.06	5123.50
666.18	5169.50
666.30	5153.67
666.42	5139.50
666.54	5198.50
666.67	5191.67
666.79	5134.33
666.91	5197.83
667.03	5148.50
667.15	5088.00
667.27	5134.83
667.40	5125.50
667.52	5129.50
667.64	5158.17
667.76	5110.17
667.88	5082.83
668.00	5180.00
668.13	5165.50
668.25	5095.17
668.37	5064.17
668.49	5091.83
668.61	5154.50
668.73	5105.67
668.85	5118.83
668.98	5140.00
669.10	5115.83
669.22	5105.00
669.34	5099.00
669.46	5177.50
669.58	5070.00
669.71	5111.33
669.83	5109.17
669.95	5090.50
670.07	5102.67
670.19	5061.17
670.31	5100.50
670.43	5067.83
670.56	5119.00
670.68	5139.67
670.80	5102.00
670.92	5104.83
671.04	5183.33
671.16	5072.33
671.28	5062.17
671.41	5073.33
671.53	5120.00
671.65	5071.00
671.77	5090.50
671.89	5223.17
672.01	5155.33
672.13	5104.67
672.26	5027.50
672.38	5069.00
672.50	5027.17
672.62	5067.67
672.74	5073.33
672.86	5068.83
672.98	5067.50
673.11	5048.00
673.23	5061.33
673.35	5119.83
673.47	5035.83
673.59	5037.50
673.71	5022.50
673.83	5088.33
673.96	5159.67
674.08	5053.67
674.20	5006.00
674.32	5035.67
674.44	5022.83
674.56	5061.83
674.68	5004.00
674.80	5056.83
674.93	5028.00
675.05	5002.67
675.17	5028.00
675.29	5082.50
675.41	5056.17
675.53	5026.50
675.65	4983.50
675.77	5015.50
675.90	5043.00
676.02	5012.33
676.14	4983.67
676.26	5065.17
676.38	5102.67
676.50	5027.33
676.62	5017.17
676.74	4972.83
676.87	4975.83
676.99	5040.50
677.11	5044.50
677.23	5037.83
677.35	5006.00
677.47	4967.17
677.59	4982.83
677.71	5003.33
677.83	5024.50
677.96	4972.50
678.08	5011.50
678.20	4976.50
678.32	4958.33
678.44	5001.67
678.56	4981.17
678.68	5096.50
678.80	5014.83
678.93	4963.83
679.05	4982.00
679.17	4988.17
679.29	5029.17
679.41	4966.00
679.53	4897.17
679.65	4935.17
679.77	4975.50
679.89	4962.33
680.01	4998.83
680.14	5005.50
680.26	4893.17
680.38	4954.50
680.50	5014.83
680.62	5045.00
680.74	4987.17
680.86	4953.17
680.98	4963.67
681.10	4985.00
681.22	5049.50
681.35	4948.50
681.47	4956.50
681.59	4945.33
681.71	5056.67
681.83	4985.33
681.95	4932.67
682.07	5019.67
682.19	4965.17
682.31	4927.83
682.43	4913.67
682.56	4981.50
682.68	4901.83
682.80	4932.83
682.92	4974.33
683.04	4974.17
683.16	4932.67
683.28	4909.83
683.40	4960.67
683.52	4947.17
683.64	4958.83
683.76	4914.83
683.89	4927.17
684.01	4938.67
684.13	5010.33
684.25	4955.67
684.37	4915.67
684.49	4980.50
684.61	4928.83
684.73	4957.17
684.85	4935.00
684.97	4917.33
685.09	5001.00
685.21	4894.33
685.34	4916.83
685.46	5065.33
685.58	4971.17
685.70	4931.33
685.82	4956.83
685.94	4914.17
686.06	4911.83
686.18	4897.17
686.30	4928.00
686.42	4897.83
686.54	4961.83
686.66	4906.83
686.79	4989.83
686.91	4949.67
687.03	5037.50
687.15	4974.00
687.27	4931.83
687.39	4923.17
687.51	4986.17
687.63	4938.67
687.75	4970.17
687.87	4973.33
687.99	5003.17
688.11	4905.83
688.23	4949.83
688.35	4978.83
688.48	4938.83
688.60	4906.33
688.72	4914.33
688.84	4947.33
688.96	4940.00
689.08	4923.33
689.20	4925.83
689.32	5034.00
689.44	4925.50
689.56	4898.17
689.68	4899.67
689.80	4931.67
689.92	4906.33
690.04	4905.50
690.16	4974.17
690.28	4957.83
690.41	4943.83
690.53	4883.67
690.65	4943.00
690.77	4993.00
690.89	4968.67
691.01	4928.33
691.13	4941.67
691.25	4893.50
691.37	4929.33
691.49	4904.33
691.61	4884.00
691.73	4997.50
691.85	4950.17
691.97	4920.33
692.09	4900.67
692.21	4986.33
692.33	5003.67
692.45	4955.17
692.57	4910.50
692.70	4939.67
692.82	4939.33
692.94	4891.50
693.06	4922.00
693.18	4941.83
693.30	4892.67
693.42	4908.83
693.54	4960.17
693.66	4929.00
693.78	4960.83
693.90	4910.50
694.02	4938.00
694.14	4955.33
694.26	4940.67
694.38	4949.00
694.50	4953.33
694.62	4956.83
694.74	4903.83
694.86	4914.33
694.98	4953.33
695.10	4941.33
695.22	4964.00
695.34	4919.33
695.46	4911.50
695.58	4944.00
695.71	4920.00
695.83	4955.00
695.95	4929.83
696.07	4993.00
696.19	4903.17
696.31	4922.50
696.43	4880.67
696.55	5021.50
696.67	4956.00
696.79	4916.33
696.91	4956.50
697.03	4937.33
697.15	5043.17
697.27	4957.00
697.39	4920.67
697.51	4977.50
697.63	4919.67
697.75	4923.50
697.87	4947.83
697.99	4925.50
698.11	4883.33
698.23	4892.33
698.35	4911.17
698.47	4947.00
698.59	4962.17
698.71	4922.67
698.83	5017.50
698.95	4923.17
699.07	4957.33
699.19	4952.33
699.31	4965.17
699.43	4914.83
699.55	5002.50
699.67	4925.83
699.79	4932.83
699.91	4948.50
700.03	4950.33
700.15	4957.00
700.27	4937.33
700.39	4949.33
700.51	4914.00
700.63	4951.50
700.75	4938.83
700.87	4958.33
700.99	4918.50
701.11	4977.00
701.24	4948.50
701.36	4983.00
701.48	5006.67
701.60	4998.83
701.72	4920.00
701.84	5023.17
701.96	4989.67
702.08	4960.17
702.20	5038.33
702.32	4997.17
702.44	5003.17
702.56	4923.67
702.68	4962.83
702.80	4975.17
702.92	5058.67
703.04	5030.33
703.16	4983.50
703.28	4987.00
703.40	4964.50
703.52	5003.67
703.64	5009.67
703.76	4983.50
703.88	4954.83
704.00	4977.33
704.12	4992.17
704.24	5020.00
704.36	5003.00
704.48	4992.00
704.60	4925.17
704.72	4989.17
704.84	4990.33
704.96	4992.83
705.07	5002.67
705.19	4953.17
705.31	4974.17
705.43	4987.17
705.55	4954.00
705.67	5012.00
705.79	4990.50
705.91	4912.50
706.03	4960.83
706.15	4991.33
706.27	4996.17
706.39	4954.33
706.51	4985.33
706.63	4969.67
706.75	5012.50
706.87	5009.33
706.99	5025.83
707.11	4989.67
707.23	4951.67
707.35	5019.50
707.47	4993.50
707.59	5004.50
707.71	5037.33
707.83	4982.00
707.95	5039.17
708.07	4990.33
708.19	5090.67
708.31	5027.50
708.43	4946.17
708.55	4983.83
708.67	5058.50
708.79	5012.50
708.91	5025.00
709.03	5025.00
709.15	5045.00
709.27	4952.83
709.39	5002.17
709.51	4979.33
709.63	4996.00
709.75	5031.67
709.87	4966.67
709.99	5041.50
710.11	4977.83
710.23	4993.00
710.35	4969.17
710.47	5102.33
710.58	5032.17
710.70	5065.67
710.82	5068.83
710.94	5011.33
711.06	5010.50
711.18	4992.33
711.30	4984.83
711.42	5035.83
711.54	4988.17
711.66	5027.83
711.78	4966.17
711.90	5022.50
712.02	5064.33
712.14	4997.83
712.26	4942.33
712.38	5068.17
712.50	5066.83
712.62	5012.83
712.74	4949.50
712.86	4973.33
712.98	5029.50
713.10	4967.00
713.22	4952.00
713.34	5019.50
713.45	4973.00
713.57	4999.67
713.69	4968.67
713.81	4985.33
713.93	5003.67
714.05	4989.67
714.17	4948.50
714.29	5071.33
714.41	5050.00
714.53	4996.50
714.65	5020.17
714.77	4988.33
714.89	4958.67
715.01	5020.67
715.13	4976.50
715.25	4978.67
715.37	4933.50
715.49	4937.50
715.61	5022.50
715.72	5017.00
715.84	5036.00
715.96	4967.67
716.08	4972.83
716.20	5044.00
716.32	5042.33
716.44	4986.33
716.56	4982.17
716.68	4971.33
716.80	5050.33
716.92	5028.00
717.04	4993.50
717.16	4990.00
717.28	4973.83
717.40	4963.50
717.52	4977.33
717.63	4970.50
717.75	4972.17
717.87	4990.67
717.99	4980.33
718.11	4935.17
718.23	5035.83
718.35	4997.50
718.47	4996.50
718.59	4902.83
718.71	4947.67
718.83	4946.67
718.95	4989.33
719.07	4910.50
719.19	4923.00
719.30	4932.67
719.42	4990.50
719.54	4938.17
719.66	4952.50
719.78	4958.33
719.90	4893.17
720.02	4967.67
720.14	4964.50
720.26	4994.50
720.38	4958.17
720.50	4925.83
720.62	4888.00
720.74	4954.17
720.85	4941.00
720.97	5010.17
721.09	5023.50
721.21	4932.00
721.33	4991.67
721.45	4942.83
721.57	4935.00
721.69	4883.50
721.81	4855.00
721.93	5000.50
722.05	4968.17
722.16	4909.00
722.28	4883.67
722.40	4912.33
722.52	4974.33
722.64	4995.33
722.76	4865.83
722.88	4965.67
723.00	4956.50
723.12	4917.83
723.24	4919.67
723.36	4863.50
723.47	4961.83
723.59	4949.67
723.71	4902.17
723.83	4949.17
723.95	4903.67
724.07	4919.33
724.19	4929.83
724.31	5023.50
724.43	4893.17
724.55	4860.67
724.66	4895.50
724.78	5056.17
724.90	4871.83
725.02	4884.67
725.14	4875.00
725.26	4924.50
725.38	4848.33
725.50	4939.33
725.62	4918.33
725.74	4911.33
725.85	4901.00
725.97	4911.67
726.09	4976.33
726.21	5226.50
726.33	4958.17
726.45	4928.33
726.57	4889.17
726.69	4920.83
726.81	4918.83
726.92	4932.00
727.04	4930.33
727.16	4940.50
727.28	4920.00
727.40	4938.83
727.52	4926.67
727.64	5062.50
727.76	4985.67
727.88	4936.00
727.99	4878.67
728.11	4871.83
728.23	4914.50
728.35	4904.50
728.47	4902.17
728.59	4891.50
728.71	4927.33
728.83	4912.50
728.94	4932.17
729.06	5013.00
729.18	4967.67
729.30	4934.83
729.42	4905.83
729.54	4998.33
729.66	5003.50
729.78	4919.50
729.90	4920.17
730.01	4914.33
730.13	4819.50
730.25	4895.83
730.37	4894.50
730.49	4944.83
730.61	4935.67
730.73	4921.17
730.84	4919.33
730.96	4888.33
731.08	4916.00
731.20	4899.83
731.32	4876.83
731.44	5019.83
731.56	4897.00
731.68	4865.00
731.79	4893.33
731.91	4864.50
732.03	4852.00
732.15	4895.50
732.27	4848.50
732.39	4855.00
732.51	4916.17
732.62	4844.67
732.74	4845.83
732.86	4937.00
732.98	4890.50
733.10	4876.17
733.22	4887.83
733.34	4908.83
733.45	4814.67
733.57	4873.50
733.69	4818.17
733.81	4860.83
733.93	4875.00
734.05	4816.00
734.17	4862.50
734.28	4855.50
734.40	4873.50
734.52	4837.83
734.64	4863.17
734.76	4937.50
734.88	4867.83
735.00	4836.83
735.11	4849.17
735.23	4909.00
735.35	4834.83
735.47	4803.50
735.59	4880.17
735.71	4846.33
735.83	4873.17
735.94	4877.33
736.06	4881.83
736.18	4903.33
736.30	4903.33
736.42	4854.33
736.54	4835.67
736.65	4880.33
736.77	4988.83
736.89	4892.33
737.01	4824.50
737.13	4935.50
737.25	4751.17
737.36	4782.17
737.48	4822.17
737.60	4828.00
737.72	4809.33
737.84	4822.33
737.96	4895.50
738.08	4829.33
738.19	4909.67
738.31	4793.67
738.43	4825.67
738.55	4814.67
738.67	4824.00
738.79	4788.00
738.90	4805.67
739.02	4817.83
739.14	4792.50
739.26	4787.50
739.38	4826.33
739.50	4846.17
739.61	4798.17
739.73	4807.33
739.85	4802.83
739.97	4809.67
740.09	4851.50
740.20	4716.00
740.32	4816.50
740.44	4826.83
740.56	4746.00
740.68	4782.50
740.80	4770.50
740.91	4774.67
741.03	4821.50
741.15	4805.67
741.27	4763.67
741.39	4829.17
741.51	4782.00
741.62	4821.67
741.74	4763.83
741.86	4768.00
741.98	4739.00
742.10	4775.50
742.21	4734.00
742.33	4771.83
742.45	4727.00
742.57	4798.17
742.69	4725.50
742.80	4785.17
742.92	4725.00
743.04	4746.33
743.16	4711.17
743.28	4775.67
743.40	4683.67
743.51	4704.83
743.63	4689.50
743.75	4715.50
743.87	4720.17
743.99	4758.50
744.10	4727.83
744.22	4722.67
744.34	4683.67
744.46	4718.67
744.58	4728.67
744.69	4634.00
744.81	4700.50
744.93	4650.17
745.05	4625.00
745.17	4774.67
745.28	4771.17
745.40	4728.00
745.52	4684.50
745.64	4676.17
745.76	4696.17
745.87	4660.17
745.99	4641.17
746.11	4695.00
746.23	4637.33
746.35	4699.33
746.46	4651.33
746.58	4764.67
746.70	4673.33
746.82	4655.17
746.94	4641.00
747.05	4597.33
747.17	4603.83
747.29	4567.17
747.41	4620.83
747.53	4747.33
747.64	4615.50
747.76	4678.67
747.88	4681.17
748.00	4678.83
748.12	4631.17
748.23	4611.33
748.35	4641.17
748.47	4663.33
748.59	4652.50
748.70	4584.83
748.82	4564.83
748.94	4588.17
749.06	4572.83
749.18	4595.33
749.29	4565.67
749.41	4610.50
749.53	4577.17
749.65	4587.33
749.76	4612.00
749.88	4560.67
750.00	4571.00
750.12	4631.00
750.24	4599.33
750.35	4596.00
750.47	4521.83
750.59	4610.67
750.71	4538.67
750.82	4600.33
750.94	4514.33
751.06	4547.00
751.18	4529.33
751.30	4577.33
751.41	4573.83
751.53	4565.67
751.65	4519.67
751.77	4498.50
751.88	4541.17
752.00	4557.67
752.12	4479.50
752.24	4575.67
752.35	4533.50
752.47	4544.83
752.59	4552.83
752.71	4559.33
752.83	4490.33
752.94	4569.83
753.06	4484.17
753.18	4517.00
753.30	4456.33
753.41	4443.67
753.53	4457.00
753.65	4481.17
753.77	4534.50
753.88	4467.00
754.00	4460.83
754.12	4467.50
754.24	4528.67
754.35	4449.17
754.47	4381.67
754.59	4482.33
754.71	4468.17
754.82	4438.50
754.94	4434.83
755.06	4472.67
755.18	4444.67
755.29	4452.67
755.41	4402.83
755.53	4454.00
755.65	4382.00
755.76	4438.83
755.88	4404.67
756.00	4462.83
756.12	4383.00
756.23	4293.33
756.35	4359.50
756.47	4429.17
756.59	4383.67
756.70	4363.67
756.82	4360.83
756.94	4356.33
757.06	4382.17
757.17	4381.00
757.29	4365.67
757.41	4304.17
757.53	4367.33
757.64	4343.33
757.76	4334.50
757.88	4384.50
758.00	4378.50
758.11	4325.83
758.23	4270.00
758.35	4343.83
758.47	4300.83
758.58	4348.50
758.70	4277.83
758.82	4319.33
758.94	4264.00
759.05	4305.17
759.17	4245.33
759.29	4286.33
759.40	4344.33
759.52	4283.17
759.64	4275.67
759.76	4310.17
759.87	4312.33
759.99	4297.17
760.11	4248.00
760.23	4277.17
760.34	4316.33
760.46	4278.00
760.58	4244.17
760.70	4263.00
760.81	4291.00
760.93	4266.33
761.05	4261.17
761.16	4238.67
761.28	4233.83
761.40	4228.67
761.52	4175.67
761.63	4277.50
761.75	4244.83
761.87	4213.00
761.98	4186.50
762.10	4239.17
762.22	4218.00
762.34	4256.00
762.45	4186.33
762.57	4237.17
762.69	4332.50
762.81	4178.50
762.92	4222.17
763.04	4129.17
763.16	4196.50
763.27	4207.17
763.39	4147.83
763.51	4163.17
763.63	4179.00
763.74	4173.17
763.86	4109.67
763.98	4109.83
764.09	4108.67
764.21	4139.17
764.33	4100.17
764.44	4113.17
764.56	4126.83
764.68	4092.33
764.80	4136.67
764.91	4067.83
765.03	4177.17
765.15	4104.17
765.26	4110.67
765.38	4073.17
765.50	4129.83
765.62	4102.17
765.73	4069.50
765.85	4092.83
765.97	4041.17
766.08	4077.67
766.20	4081.00
766.32	4092.33
766.43	4100.67
766.55	4105.50
766.67	4049.50
766.79	4048.67
766.90	4024.50
767.02	4005.33
767.14	4014.00
767.25	3999.67
767.37	4142.33
767.49	4040.67
767.60	4030.67
767.72	4095.00
767.84	4048.00
767.95	3995.67
768.07	3988.33
768.19	4036.50
768.31	4023.00
768.42	3992.83
768.54	3994.17
768.66	3979.50
768.77	4009.50
768.89	3981.83
769.01	3943.50
769.12	3989.67
769.24	3986.17
769.36	3942.00
769.47	3929.67
769.59	3926.50
769.71	3984.67
769.82	3929.83
769.94	3934.00
770.06	3885.83
770.17	3983.50
770.29	3937.00
770.41	3964.33
770.53	3957.50
770.64	3883.83
770.76	3926.83
770.88	3940.33
770.99	3950.17
771.11	3869.50
771.23	3917.83
771.34	3890.33
771.46	3975.50
771.58	3943.67
771.69	3911.00
771.81	3893.17
771.93	3910.67
772.04	3851.17
772.16	3904.67
772.28	3868.00
772.39	3891.17
772.51	3828.17
772.63	3886.33
772.74	3829.33
772.86	3843.67
772.98	3952.67
773.09	3820.83
773.21	3819.33
773.33	3830.00
773.44	3847.17
773.56	3803.67
773.68	3807.83
773.79	3855.17
773.91	3779.50
774.03	3799.33
774.14	3790.83
774.26	3826.33
774.38	3745.83
774.49	3733.83
774.61	3771.00
774.73	3774.50
774.84	3750.50
774.96	3732.83
775.08	3755.67
775.19	3753.17
775.31	3797.33
775.43	3756.83
775.54	3698.67
775.66	3672.17
775.77	3783.67
775.89	3688.50
776.01	3747.00
776.12	3758.50
776.24	3726.33
776.36	3673.67
776.47	3679.00
776.59	3706.50
776.71	3728.00
776.82	3630.83
776.94	3646.00
777.06	3665.00
777.17	3719.83
777.29	3655.67
777.41	3656.83
777.52	3682.67
777.64	3663.67
777.75	3687.33
777.87	3574.33
777.99	3631.50
778.10	3661.17
778.22	3613.33
778.34	3630.00
778.45	3632.00
778.57	3651.67
778.69	3659.00
778.80	3617.17
778.92	3726.50
779.04	3616.83
779.15	3604.00
779.27	3640.67
779.38	3645.50
779.50	3654.00
779.62	3552.50
779.73	3580.33
779.85	3517.67
779.97	3664.83
780.08	3583.50
780.20	3572.50
780.31	3587.00
780.43	3580.67
780.55	3526.50
780.66	3538.00
780.78	3587.17
780.90	3627.33
781.01	3495.83
781.13	3525.00
781.25	3510.00
781.36	3557.50
781.48	3491.83
781.59	3508.17
781.71	3527.00
781.83	3527.00
781.94	3470.33
782.06	3469.50
782.18	3546.17
782.29	3479.50
782.41	3430.00
782.52	3519.17
782.64	3511.33
782.76	3470.50
782.87	3482.00
782.99	3446.00
783.10	3569.17
783.22	3570.83
783.34	3424.83
783.45	3450.00
783.57	3429.83
783.69	3414.67
783.80	3442.00
783.92	3437.50
784.03	3413.17
784.15	3374.33
784.27	3398.33
784.38	3381.83
784.50	3415.00
784.61	3400.50
784.73	3361.17
784.85	3378.00
784.96	3367.83
785.08	3435.67
785.19	3422.83
785.31	3381.33
785.43	3313.33
785.54	3336.50
785.66	3390.17
785.77	3377.33
785.89	3379.67
786.01	3303.17
786.12	3346.17
786.24	3343.50
786.35	3418.83
786.47	3343.67
786.59	3329.50
786.70	3287.00
786.82	3336.83
786.93	3342.33
787.05	3323.83
787.17	3326.83
787.28	3291.67
787.40	3298.67
787.51	3302.83
787.63	3321.83
787.75	3258.33
787.86	3309.17
787.98	3302.33
788.09	3272.67
788.21	3293.50
788.33	3279.33
788.44	3265.00
788.56	3232.83
788.67	3290.00
788.79	3231.17
788.91	3250.83
789.02	3223.00
789.14	3235.67
789.25	3315.17
789.37	3276.00
789.48	3223.00
789.60	3248.17
789.72	3193.33
789.83	3230.50
789.95	3218.67
790.06	3166.00
790.18	3173.17
790.30	3233.17
790.41	3212.83
790.53	3175.17
790.64	3156.33
790.76	3134.33
790.87	3174.17
790.99	3174.33
791.11	3174.83
791.22	3148.17
791.34	3149.67
791.45	3205.17
791.57	3184.00
791.68	3149.67
791.80	3122.00
791.92	3187.83
792.03	3111.83
792.15	3107.67
792.26	3129.50
792.38	3108.33
792.49	3143.50
792.61	3117.33
792.73	3118.33
792.84	3117.33
792.96	3208.33
793.07	3102.67
793.19	3872.83
793.30	3193.67
793.42	3129.00
793.54	3028.83
793.65	3044.50
793.77	3225.17
793.88	3063.83
794.00	3039.00
794.11	3061.50
794.23	3012.33
794.34	3073.33
794.46	3014.00
794.58	3024.50
794.69	3152.17
794.81	3113.50
794.92	3020.17
795.04	3013.17
795.15	3115.83
795.27	3082.17
795.39	3056.00
795.50	3001.00
795.62	3015.17
795.73	3014.50
795.85	3009.50
795.96	3041.50
796.08	3078.33
796.19	2976.67
796.31	2995.17
796.42	2952.33
796.54	2978.17
796.66	3035.33
796.77	2957.33
796.89	2939.00
797.00	3029.00
797.12	2896.33
797.23	2984.17
797.35	2973.33
797.46	2994.33
797.58	3009.67
797.69	2977.17
797.81	2940.83
797.93	2941.50
798.04	2932.17
798.16	2917.83
798.27	2943.00
798.39	2913.33
798.50	2884.00
798.62	2883.00
798.73	2892.83
798.85	2988.00
798.96	2908.50
799.08	2933.00
799.19	2938.67
799.31	2889.17
799.43	2888.67
799.54	2866.50
799.66	2899.83
799.77	2912.33
799.89	2846.17
800.00	2817.67
800.12	2871.00
800.23	2914.33
800.35	2933.67
800.46	2805.67
800.58	2786.50
800.69	2841.33
800.81	2832.67
800.92	2809.50
801.04	2849.83
801.16	2772.67
801.27	2788.67
801.39	2804.83
801.50	2797.33
801.62	2789.33
801.73	2852.17
801.85	2848.83
801.96	2775.50
802.08	2850.50
802.19	2829.33
802.31	2773.83
802.42	2799.33
802.54	2881.50
802.65	2845.67
802.77	2749.67
802.88	2822.67
803.00	2742.67
803.11	2880.00
803.23	2787.50
803.34	2767.17
803.46	2776.17
803.57	2737.33
803.69	2793.67
803.80	2727.00
803.92	2817.00
804.03	2740.83
804.15	2767.83
804.26	2756.50
804.38	2762.83
804.50	2701.00
804.61	2746.17
804.73	2724.33
804.84	2724.33
804.96	2655.50
805.07	2715.67
805.19	2673.00
805.30	2712.17
805.42	2713.50
805.53	2669.67
805.65	2650.50
805.76	2636.67
805.88	2638.67
805.99	2640.67
806.11	2666.33
806.22	2603.50
806.34	2605.17
806.45	2619.67
806.57	2592.83
806.68	2623.17
806.80	2516.83
806.91	2537.67
807.03	2527.33
807.14	2499.50
807.26	2483.67
807.37	2488.33
807.49	2531.33
807.60	2493.83
807.72	2555.50
807.83	2580.33
807.95	2502.00
808.06	2495.33
808.17	2481.00
808.29	2488.67
808.40	2432.00
808.52	2448.83
808.63	2430.67
808.75	2423.50
808.86	2410.00
808.98	2419.50
809.09	2357.50
809.21	2396.33
809.32	2348.83
809.44	2375.67
809.55	2284.33
809.67	2329.83
809.78	2280.33
809.90	2335.33
810.01	2361.00
810.13	2276.17
810.24	2317.67
810.36	2226.83
810.47	2210.33
810.59	2243.83
810.70	2244.83
810.82	2252.00
810.93	2168.83
811.05	2150.50
811.16	2155.00
811.27	2128.50
811.39	2163.67
811.50	2203.17
811.62	2081.00
811.73	2067.17
811.85	2123.50
811.96	2109.83
812.08	2117.00
812.19	2079.67
812.31	2078.83
812.42	2058.67
812.54	2019.83
812.65	2086.83
812.77	2066.17
812.88	2051.00
813.00	2032.67
813.11	2008.17
813.22	1950.33
813.34	1954.00
813.45	1973.83
813.57	2023.83
813.68	2018.33
813.80	1937.17
813.91	1885.17
814.03	1885.33
814.14	1971.33
814.26	1879.50
814.37	1890.50
814.49	1858.00
814.60	1837.00
814.71	1833.67
814.83	1838.83
814.94	1768.83
815.06	1796.67
815.17	1805.67
815.29	1779.17
815.40	1745.50
815.52	1836.50
815.63	1755.50
815.75	1735.67
815.86	1761.50
815.97	1687.50
816.09	1726.50
816.20	1725.33
816.32	1722.83
816.43	1641.00
816.55	1695.50
816.66	1655.17
816.78	1743.67
816.89	1650.33
817.00	1640.33
817.12	1604.17
817.23	1591.17
817.35	1656.33
817.46	1608.83
817.58	1565.50
817.69	1703.33
817.81	1575.33
817.92	1592.33
818.03	1553.67
818.15	1548.17
818.26	1496.83
818.38	1486.50
818.49	1510.33
818.61	1520.33
818.72	1468.00
818.83	2527.83
818.95	1615.67
819.06	1450.50
819.18	1431.83
819.29	1465.50
819.41	1454.67
819.52	1447.67
819.64	1425.17
819.75	1387.67
819.86	1355.67
819.98	1380.50
820.09	1403.50
820.21	1370.83
820.32	1326.33
820.44	1364.33
820.55	1412.67
820.66	1316.83
820.78	1361.50
820.89	1317.67
821.01	1330.33
821.12	1298.00
821.23	1309.83
821.35	1263.83
821.46	1322.33
821.58	1280.33
821.69	1251.50
821.81	1226.17
821.92	1293.33
822.03	1232.50
822.15	1231.17
822.26	1178.67
822.38	1173.00
822.49	1216.17
822.61	1192.00
822.72	1191.33
822.83	1224.33
822.95	1173.33
823.06	1162.17
823.18	1186.83
823.29	1209.67
823.40	1154.50
823.52	1112.17
823.63	1072.67
823.75	1190.33
823.86	1102.17
823.97	1048.67
824.09	1122.83
824.20	1036.67
824.32	1079.00
824.43	1059.67
824.55	1091.67
824.66	1127.17
824.77	1040.33
824.89	1047.67
825.00	1084.67
825.12	1031.00
825.23	1045.33
825.34	972.50
825.46	974.00
825.57	1029.83
825.69	967.83
825.80	917.33
825.91	946.33
826.03	914.17
826.14	980.67
826.26	919.50
826.37	939.50
826.48	924.83
826.60	939.50
826.71	901.83
826.83	929.33
826.94	925.17
827.05	952.33
827.17	942.83
827.28	898.33
827.39	865.00
827.51	849.33
827.62	878.00
827.74	876.00
827.85	866.33
827.96	847.33
828.08	862.83
828.19	943.17
828.31	851.83
828.42	800.50
828.53	872.83
828.65	889.33
828.76	905.83
828.87	868.67
828.99	806.83
