Wavelength (nm)	Intensity
377.35	818.00
377.48	590.00
377.62	594.00
377.75	614.00
377.88	840.00
378.02	837.00
378.15	818.00
378.28	795.00
378.41	877.00
378.55	864.00
378.68	826.00
378.81	804.00
378.95	850.00
379.08	845.00
379.21	795.00
379.35	863.00
379.48	866.00
379.61	916.00
379.74	838.00
379.88	814.00
380.01	914.00
380.14	988.00
380.28	891.00
380.41	819.00
380.54	876.00
380.68	889.00
380.81	800.00
380.94	887.00
381.07	935.00
381.21	941.00
381.34	843.00
381.47	786.00
381.61	1016.00
381.74	857.00
381.87	817.00
382.00	885.00
382.14	971.00
382.27	902.00
382.40	842.00
382.54	914.00
382.67	930.00
382.80	813.00
382.93	835.00
383.07	862.00
383.20	872.00
383.33	902.00
383.47	829.00
383.60	794.00
383.73	1022.00
383.86	890.00
384.00	863.00
384.13	848.00
384.26	892.00
384.40	906.00
384.53	841.00
384.66	909.00
384.79	891.00
384.93	849.00
385.06	859.00
385.19	854.00
385.33	981.00
385.46	909.00
385.59	829.00
385.72	872.00
385.86	804.00
385.99	841.00
386.12	846.00
386.25	835.00
386.39	904.00
386.52	934.00
386.65	868.00
386.79	852.00
386.92	853.00
387.05	960.00
387.18	820.00
387.32	820.00
387.45	906.00
387.58	893.00
387.71	867.00
387.85	854.00
387.98	901.00
388.11	907.00
388.25	883.00
388.38	853.00
388.51	899.00
388.64	918.00
388.78	843.00
388.91	818.00
389.04	862.00
389.17	974.00
389.31	875.00
389.44	907.00
389.57	940.00
389.70	898.00
389.84	855.00
389.97	841.00
390.10	846.00
390.24	895.00
390.37	870.00
390.50	846.00
390.63	949.00
390.77	889.00
390.90	878.00
391.03	862.00
391.16	838.00
391.30	865.00
391.43	826.00
391.56	838.00
391.69	852.00
391.83	934.00
391.96	883.00
392.09	868.00
392.22	980.00
392.36	889.00
392.49	843.00
392.62	870.00
392.75	908.00
392.89	947.00
393.02	842.00
393.15	830.00
393.28	824.00
393.42	982.00
393.55	841.00
393.68	866.00
393.81	816.00
393.95	864.00
394.08	854.00
394.21	861.00
394.34	929.00
394.48	915.00
394.61	894.00
394.74	894.00
394.87	935.00
395.01	927.00
395.14	923.00
395.27	858.00
395.40	979.00
395.54	980.00
395.67	886.00
395.80	874.00
395.93	924.00
396.07	857.00
396.20	874.00
396.33	828.00
396.46	887.00
396.59	885.00
396.73	879.00
396.86	866.00
396.99	954.00
397.12	905.00
397.26	906.00
397.39	880.00
397.52	1174.00
397.65	1002.00
397.79	886.00
397.92	870.00
398.05	946.00
398.18	882.00
398.32	884.00
398.45	907.00
398.58	900.00
398.71	907.00
398.84	844.00
398.98	880.00
399.11	932.00
399.24	924.00
399.37	870.00
399.51	843.00
399.64	913.00
399.77	904.00
399.90	879.00
400.03	894.00
400.17	847.00
400.30	949.00
400.43	923.00
400.56	889.00
400.70	902.00
400.83	877.00
400.96	869.00
401.09	893.00
401.23	910.00
401.36	983.00
401.49	870.00
401.62	905.00
401.75	880.00
401.89	863.00
402.02	881.00
402.15	886.00
402.28	931.00
402.41	909.00
402.55	879.00
402.68	910.00
402.81	974.00
402.94	941.00
403.08	887.00
403.21	860.00
403.34	937.00
403.47	948.00
403.60	867.00
403.74	918.00
403.87	947.00
404.00	874.00
404.13	870.00
404.26	838.00
404.40	854.00
404.53	920.00
404.66	890.00
404.79	863.00
404.93	949.00
405.06	916.00
405.19	853.00
405.32	892.00
405.45	948.00
405.59	947.00
405.72	897.00
405.85	868.00
405.98	1076.00
406.11	891.00
406.25	879.00
406.38	876.00
406.51	946.00
406.64	905.00
406.77	865.00
406.91	873.00
407.04	934.00
407.17	897.00
407.30	917.00
407.43	901.00
407.57	987.00
407.70	982.00
407.83	883.00
407.96	922.00
408.09	890.00
408.23	995.00
408.36	905.00
408.49	904.00
408.62	1027.00
408.75	930.00
408.89	891.00
409.02	912.00
409.15	936.00
409.28	1010.00
409.41	930.00
409.55	915.00
409.68	1036.00
409.81	944.00
409.94	898.00
410.07	930.00
410.20	931.00
410.34	893.00
410.47	919.00
410.60	932.00
410.73	948.00
410.86	872.00
411.00	923.00
411.13	901.00
411.26	924.00
411.39	933.00
411.52	938.00
411.66	899.00
411.79	913.00
411.92	912.00
412.05	921.00
412.18	899.00
412.31	926.00
412.45	964.00
412.58	966.00
412.71	882.00
412.84	951.00
412.97	1022.00
413.11	939.00
413.24	950.00
413.37	986.00
413.50	1031.00
413.63	936.00
413.76	936.00
413.90	974.00
414.03	916.00
414.16	919.00
414.29	942.00
414.42	958.00
414.56	1062.00
414.69	905.00
414.82	919.00
414.95	923.00
415.08	953.00
415.21	922.00
415.35	953.00
415.48	877.00
415.61	1004.00
415.74	991.00
415.87	887.00
416.00	970.00
416.14	1040.00
416.27	935.00
416.40	903.00
416.53	954.00
416.66	978.00
416.79	940.00
416.93	902.00
417.06	980.00
417.19	944.00
417.32	926.00
417.45	923.00
417.58	910.00
417.72	997.00
417.85	935.00
417.98	931.00
418.11	982.00
418.24	923.00
418.37	938.00
418.51	938.00
418.64	950.00
418.77	1029.00
418.90	950.00
419.03	901.00
419.16	961.00
419.29	991.00
419.43	932.00
419.56	900.00
419.69	1069.00
419.82	1018.00
419.95	958.00
420.08	1001.00
420.22	1025.00
420.35	1085.00
420.48	999.00
420.61	941.00
420.74	910.00
420.87	993.00
421.00	915.00
421.14	931.00
421.27	1012.00
421.40	1028.00
421.53	974.00
421.66	943.00
421.79	970.00
421.93	967.00
422.06	948.00
422.19	934.00
422.32	1029.00
422.45	1010.00
422.58	964.00
422.71	935.00
422.85	1022.00
422.98	1019.00
423.11	932.00
423.24	910.00
423.37	942.00
423.50	946.00
423.63	984.00
423.77	942.00
423.90	929.00
424.03	994.00
424.16	991.00
424.29	952.00
424.42	916.00
424.55	939.00
424.69	902.00
424.82	951.00
424.95	976.00
425.08	934.00
425.21	981.00
425.34	935.00
425.47	969.00
425.60	1002.00
425.74	912.00
425.87	960.00
426.00	980.00
426.13	993.00
426.26	938.00
426.39	934.00
426.52	969.00
426.66	1038.00
426.79	993.00
426.92	947.00
427.05	1073.00
427.18	1051.00
427.31	977.00
427.44	970.00
427.57	924.00
427.71	965.00
427.84	948.00
427.97	967.00
428.10	1054.00
428.23	1004.00
428.36	972.00
428.49	902.00
428.62	1124.00
428.76	1104.00
428.89	1021.00
429.02	933.00
429.15	978.00
429.28	1089.00
429.41	949.00
429.54	980.00
429.67	991.00
429.81	1043.00
429.94	994.00
430.07	968.00
430.20	1058.00
430.33	1074.00
430.46	950.00
430.59	936.00
430.72	982.00
430.85	935.00
430.99	969.00
431.12	952.00
431.25	1042.00
431.38	1083.00
431.51	1008.00
431.64	979.00
431.77	1086.00
431.90	1091.00
432.03	995.00
432.17	959.00
432.30	1021.00
432.43	1032.00
432.56	996.00
432.69	1025.00
432.82	1028.00
432.95	1040.00
433.08	1003.00
433.21	1007.00
433.35	994.00
433.48	1015.00
433.61	967.00
433.74	992.00
433.87	979.00
434.00	1044.00
434.13	987.00
434.26	1008.00
434.39	1012.00
434.53	1048.00
434.66	1005.00
434.79	1004.00
434.92	1005.00
435.05	1072.00
435.18	987.00
435.31	1040.00
435.44	1106.00
435.57	1041.00
435.70	1011.00
435.84	980.00
435.97	1097.00
436.10	1134.00
436.23	988.00
436.36	1001.00
436.49	1024.00
436.62	1048.00
436.75	1017.00
436.88	1054.00
437.01	987.00
437.14	985.00
437.28	966.00
437.41	992.00
437.54	1096.00
437.67	1064.00
437.80	993.00
437.93	978.00
438.06	1168.00
438.19	1069.00
438.32	982.00
438.45	990.00
438.58	1054.00
438.72	1130.00
438.85	1080.00
438.98	1012.00
439.11	1052.00
439.24	1118.00
439.37	1108.00
439.50	1059.00
439.63	1090.00
439.76	1014.00
439.89	996.00
440.02	1022.00
440.15	1100.00
440.29	1134.00
440.42	1023.00
440.55	1041.00
440.68	1117.00
440.81	1186.00
440.94	1068.00
441.07	1039.00
441.20	1154.00
441.33	1087.00
441.46	1053.00
441.59	1018.00
441.72	1052.00
441.85	1062.00
441.99	1086.00
442.12	1097.00
442.25	1171.00
442.38	1086.00
442.51	1077.00
442.64	1009.00
442.77	1052.00
442.90	1041.00
443.03	1006.00
443.16	1031.00
443.29	1067.00
443.42	1150.00
443.55	1053.00
443.68	1050.00
443.82	994.00
443.95	1053.00
444.08	1050.00
444.21	1054.00
444.34	1034.00
444.47	1086.00
444.60	1071.00
444.73	1081.00
444.86	1076.00
444.99	1146.00
445.12	1108.00
445.25	1064.00
445.38	1096.00
445.51	1125.00
445.64	1081.00
445.78	1047.00
445.91	1001.00
446.04	1202.00
446.17	1110.00
446.30	1031.00
446.43	1095.00
446.56	1106.00
446.69	1076.00
446.82	1072.00
446.95	1144.00
447.08	1155.00
447.21	1109.00
447.34	1072.00
447.47	1135.00
447.60	1132.00
447.73	1085.00
447.86	1119.00
447.99	1110.00
448.13	1126.00
448.26	1133.00
448.39	1079.00
448.52	1143.00
448.65	1173.00
448.78	1104.00
448.91	1082.00
449.04	1127.00
449.17	1085.00
449.30	1133.00
449.43	1138.00
449.56	1102.00
449.69	1198.00
449.82	1125.00
449.95	1057.00
450.08	1182.00
450.21	1170.00
450.34	1131.00
450.47	1110.00
450.60	1166.00
450.73	1145.00
450.87	1102.00
451.00	1138.00
451.13	1162.00
451.26	1310.00
451.39	1132.00
451.52	1168.00
451.65	1137.00
451.78	1110.00
451.91	1104.00
452.04	1094.00
452.17	1230.00
452.30	1230.00
452.43	1122.00
452.56	1139.00
452.69	1208.00
452.82	1122.00
452.95	1190.00
453.08	1100.00
453.21	1062.00
453.34	1187.00
453.47	1110.00
453.60	1205.00
453.73	1264.00
453.86	1209.00
453.99	1174.00
454.12	1159.00
454.25	1156.00
454.38	1177.00
454.52	1129.00
454.65	1136.00
454.78	1148.00
454.91	1115.00
455.04	1144.00
455.17	1134.00
455.30	1154.00
455.43	1252.00
455.56	1175.00
455.69	1125.00
455.82	1204.00
455.95	1210.00
456.08	1134.00
456.21	1130.00
456.34	1142.00
456.47	1145.00
456.60	1155.00
456.73	1141.00
456.86	1183.00
456.99	1212.00
457.12	1174.00
457.25	1193.00
457.38	1287.00
457.51	1259.00
457.64	1219.00
457.77	1162.00
457.90	1194.00
458.03	1198.00
458.16	1198.00
458.29	1184.00
458.42	1199.00
458.55	1171.00
458.68	1181.00
458.81	1212.00
458.94	1293.00
459.07	1333.00
459.20	1187.00
459.33	1207.00
459.46	1289.00
459.59	1349.00
459.72	1275.00
459.85	1225.00
459.98	1323.00
460.11	1281.00
460.24	1248.00
460.37	1217.00
460.50	1271.00
460.63	1265.00
460.76	1237.00
460.89	1228.00
461.02	1283.00
461.15	1294.00
461.28	1240.00
461.41	1231.00
461.54	1353.00
461.67	1227.00
461.80	1272.00
461.93	1297.00
462.06	1309.00
462.19	1350.00
462.32	1268.00
462.45	1230.00
462.58	1309.00
462.71	1249.00
462.84	1251.00
462.97	1210.00
463.10	1269.00
463.23	1297.00
463.36	1326.00
463.49	1310.00
463.62	1252.00
463.75	1319.00
463.88	1270.00
464.01	1291.00
464.14	1262.00
464.27	1420.00
464.40	1284.00
464.53	1281.00
464.66	1358.00
464.79	1333.00
464.92	1320.00
465.05	1287.00
465.18	1334.00
465.31	1320.00
465.44	1334.00
465.57	1308.00
465.70	1321.00
465.83	1462.00
465.96	1365.00
466.09	1319.00
466.22	1416.00
466.35	1396.00
466.48	1330.00
466.61	1361.00
466.74	1354.00
466.87	1429.00
467.00	1394.00
467.13	1374.00
467.26	1407.00
467.39	1348.00
467.52	1353.00
467.65	1341.00
467.78	1467.00
467.91	1391.00
468.04	1406.00
468.17	1360.00
468.30	1383.00
468.43	1354.00
468.56	1379.00
468.69	1437.00
468.82	1420.00
468.95	1380.00
469.08	1390.00
469.21	1423.00
469.34	1464.00
469.47	1549.00
469.60	1519.00
469.73	1435.00
469.86	1461.00
469.99	1500.00
470.11	1415.00
470.24	1446.00
470.37	1505.00
470.50	1460.00
470.63	1438.00
470.76	1443.00
470.89	1518.00
471.02	1620.00
471.15	1457.00
471.28	1476.00
471.41	1601.00
471.54	1507.00
471.67	1456.00
471.80	1417.00
471.93	1573.00
472.06	1511.00
472.19	1504.00
472.32	1457.00
472.45	1642.00
472.58	1596.00
472.71	1531.00
472.84	1518.00
472.97	1525.00
473.10	1479.00
473.23	1577.00
473.36	1513.00
473.49	1629.00
473.62	1603.00
473.74	1585.00
473.87	1565.00
474.00	1555.00
474.13	1566.00
474.26	1589.00
474.39	1623.00
474.52	1594.00
474.65	1616.00
474.78	1627.00
474.91	1578.00
475.04	1642.00
475.17	1744.00
475.30	1665.00
475.43	1663.00
475.56	1700.00
475.69	1648.00
475.82	1694.00
475.95	1651.00
476.08	1762.00
476.21	1677.00
476.34	1707.00
476.46	1696.00
476.59	1760.00
476.72	1715.00
476.85	1700.00
476.98	1668.00
477.11	1746.00
477.24	1718.00
477.37	1686.00
477.50	1703.00
477.63	1749.00
477.76	1744.00
477.89	1678.00
478.02	1676.00
478.15	1779.00
478.28	1732.00
478.41	1793.00
478.54	1752.00
478.66	1819.00
478.79	1775.00
478.92	1758.00
479.05	1800.00
479.18	1809.00
479.31	1760.00
479.44	1789.00
479.57	1768.00
479.70	1832.00
479.83	1833.00
479.96	1807.00
480.09	1882.00
480.22	2013.00
480.35	1947.00
480.48	1906.00
480.60	1869.00
480.73	1857.00
480.86	1922.00
480.99	1868.00
481.12	1879.00
481.25	1873.00
481.38	1963.00
481.51	1903.00
481.64	1925.00
481.77	1955.00
481.90	1917.00
482.03	1905.00
482.16	1910.00
482.29	2009.00
482.41	1961.00
482.54	1986.00
482.67	1943.00
482.80	1981.00
482.93	2035.00
483.06	1950.00
483.19	2014.00
483.32	2028.00
483.45	1992.00
483.58	2023.00
483.71	2068.00
483.84	2045.00
483.97	2086.00
484.09	2018.00
484.22	2002.00
484.35	2015.00
484.48	1994.00
484.61	2042.00
484.74	2075.00
484.87	2087.00
485.00	2062.00
485.13	2077.00
485.26	2039.00
485.39	2132.00
485.52	2076.00
485.64	2169.00
485.77	2105.00
485.90	2173.00
486.03	2108.00
486.16	2130.00
486.29	2090.00
486.42	2128.00
486.55	2134.00
486.68	2149.00
486.81	2169.00
486.94	2160.00
487.06	2166.00
487.19	2189.00
487.32	2185.00
487.45	2182.00
487.58	2148.00
487.71	2171.00
487.84	2142.00
487.97	2269.00
488.10	2260.00
488.23	2228.00
488.35	2142.00
488.48	2234.00
488.61	2203.00
488.74	2232.00
488.87	2245.00
489.00	2249.00
489.13	2385.00
489.26	2323.00
489.39	2304.00
489.52	2329.00
489.64	2323.00
489.77	2262.00
489.90	2298.00
490.03	2277.00
490.16	2302.00
490.29	2325.00
490.42	2291.00
490.55	2343.00
490.68	2285.00
490.81	2290.00
490.93	2260.00
491.06	2443.00
491.19	2394.00
491.32	2388.00
491.45	2387.00
491.58	2334.00
491.71	2376.00
491.84	2379.00
491.97	2390.00
492.09	2448.00
492.22	2406.00
492.35	2413.00
492.48	2443.00
492.61	2427.00
492.74	2395.00
492.87	2414.00
493.00	2433.00
493.12	2396.00
493.25	2429.00
493.38	2428.00
493.51	2408.00
493.64	2403.00
493.77	2471.00
493.90	2513.00
494.03	2510.00
494.16	2533.00
494.28	2552.00
494.41	2492.00
494.54	2511.00
494.67	2608.00
494.80	2558.00
494.93	2501.00
495.06	2549.00
495.19	2585.00
495.31	2534.00
495.44	2509.00
495.57	2483.00
495.70	2595.00
495.83	2543.00
495.96	2512.00
496.09	2516.00
496.22	2630.00
496.34	2671.00
496.47	2562.00
496.60	2597.00
496.73	2622.00
496.86	2646.00
496.99	2555.00
497.12	2603.00
497.24	2581.00
497.37	2638.00
497.50	2590.00
497.63	2569.00
497.76	2617.00
497.89	2718.00
498.02	2675.00
498.15	2569.00
498.27	2659.00
498.40	2698.00
498.53	2731.00
498.66	2664.00
498.79	2682.00
498.92	2632.00
499.05	2675.00
499.17	2694.00
499.30	2709.00
499.43	2775.00
499.56	2716.00
499.69	2632.00
499.82	2758.00
499.95	2736.00
500.07	2677.00
500.20	2746.00
500.33	2747.00
500.46	2895.00
500.59	2744.00
500.72	2768.00
500.85	2828.00
500.97	2823.00
501.10	2828.00
501.23	2747.00
501.36	2794.00
501.49	2879.00
501.62	2789.00
501.75	2810.00
501.87	2860.00
502.00	2761.00
502.13	2847.00
502.26	2844.00
502.39	2798.00
502.52	2768.00
502.64	2762.00
502.77	2826.00
502.90	2878.00
503.03	2814.00
503.16	2822.00
503.29	2848.00
503.42	2916.00
503.54	2887.00
503.67	2866.00
503.80	2901.00
503.93	2924.00
504.06	2863.00
504.19	2899.00
504.31	2948.00
504.44	2909.00
504.57	2922.00
504.70	2931.00
504.83	2862.00
504.96	2968.00
505.08	2963.00
505.21	2955.00
505.34	3075.00
505.47	3042.00
505.60	3025.00
505.73	3003.00
505.85	3041.00
505.98	3138.00
506.11	2960.00
506.24	3005.00
506.37	2918.00
506.50	2981.00
506.62	3063.00
506.75	3011.00
506.88	3009.00
507.01	3042.00
507.14	2971.00
507.27	3054.00
507.39	3041.00
507.52	3064.00
507.65	3027.00
507.78	3074.00
507.91	3044.00
508.04	3104.00
508.16	3100.00
508.29	3065.00
508.42	3049.00
508.55	3078.00
508.68	3083.00
508.81	3120.00
508.93	3060.00
509.06	3091.00
509.19	3141.00
509.32	3159.00
509.45	3175.00
509.57	3175.00
509.70	3118.00
509.83	3146.00
509.96	3123.00
510.09	3099.00
510.22	3163.00
510.34	3222.00
510.47	3157.00
510.60	3258.00
510.73	3172.00
510.86	3206.00
510.98	3188.00
511.11	3156.00
511.24	3248.00
511.37	3227.00
511.50	3199.00
511.63	3224.00
511.75	3194.00
511.88	3220.00
512.01	3230.00
512.14	3237.00
512.27	3243.00
512.39	3240.00
512.52	3222.00
512.65	3241.00
512.78	3228.00
512.91	3263.00
513.03	3268.00
513.16	3340.00
513.29	3287.00
513.42	3297.00
513.55	3281.00
513.67	3311.00
513.80	3214.00
513.93	3279.00
514.06	3284.00
514.19	3342.00
514.31	3357.00
514.44	3400.00
514.57	3343.00
514.70	3404.00
514.83	3412.00
514.95	3312.00
515.08	3331.00
515.21	3401.00
515.34	3395.00
515.47	3384.00
515.59	3312.00
515.72	3389.00
515.85	3433.00
515.98	3460.00
516.11	3435.00
516.23	3477.00
516.36	3443.00
516.49	3414.00
516.62	3419.00
516.75	3486.00
516.87	3520.00
517.00	3402.00
517.13	3458.00
517.26	3510.00
517.39	3472.00
517.51	3385.00
517.64	3471.00
517.77	3545.00
517.90	3458.00
518.02	3509.00
518.15	3444.00
518.28	3408.00
518.41	3462.00
518.54	3492.00
518.66	3493.00
518.79	3449.00
518.92	3517.00
519.05	3512.00
519.18	3475.00
519.30	3549.00
519.43	3471.00
519.56	3488.00
519.69	3527.00
519.81	3562.00
519.94	3530.00
520.07	3505.00
520.20	3555.00
520.33	3606.00
520.45	3658.00
520.58	3544.00
520.71	3619.00
520.84	3591.00
520.96	3582.00
521.09	3579.00
521.22	3587.00
521.35	3651.00
521.48	3641.00
521.60	3641.00
521.73	3611.00
521.86	3665.00
521.99	3757.00
522.11	3655.00
522.24	3602.00
522.37	3621.00
522.50	3629.00
522.62	3716.00
522.75	3608.00
522.88	3691.00
523.01	3627.00
523.14	3691.00
523.26	3676.00
523.39	3779.00
523.52	3663.00
523.65	3787.00
523.77	3710.00
523.90	3725.00
524.03	3713.00
524.16	3710.00
524.28	3703.00
524.41	3704.00
524.54	3698.00
524.67	3675.00
524.79	3721.00
524.92	3777.00
525.05	3795.00
525.18	3699.00
525.31	3770.00
525.43	3709.00
525.56	3871.00
525.69	3743.00
525.82	3709.00
525.94	3807.00
526.07	3826.00
526.20	3828.00
526.33	3807.00
526.45	3933.00
526.58	3862.00
526.71	3804.00
526.84	3765.00
526.96	3826.00
527.09	3792.00
527.22	3796.00
527.35	3847.00
527.47	3773.00
527.60	3903.00
527.73	3792.00
527.86	3866.00
527.98	3851.00
528.11	3851.00
528.24	3865.00
528.37	3835.00
528.49	3857.00
528.62	3821.00
528.75	3883.00
528.88	3852.00
529.00	3884.00
529.13	3936.00
529.26	3873.00
529.39	3978.00
529.51	4071.00
529.64	3963.00
529.77	3851.00
529.90	3833.00
530.02	3878.00
530.15	3915.00
530.28	3835.00
530.40	3885.00
530.53	3954.00
530.66	3984.00
530.79	3938.00
530.91	3928.00
531.04	3949.00
531.17	3978.00
531.30	3966.00
531.42	3980.00
531.55	3974.00
531.68	4051.00
531.81	3971.00
531.93	3964.00
532.06	4023.00
532.19	3958.00
532.31	3967.00
532.44	3978.00
532.57	4023.00
532.70	3955.00
532.82	3999.00
532.95	4048.00
533.08	4055.00
533.21	4115.00
533.33	3984.00
533.46	3969.00
533.59	3964.00
533.71	4135.00
533.84	4005.00
533.97	3988.00
534.10	4042.00
534.22	4085.00
534.35	4051.00
534.48	4051.00
534.61	4085.00
534.73	4031.00
534.86	4066.00
534.99	4074.00
535.11	4121.00
535.24	4132.00
535.37	4082.00
535.50	4054.00
535.62	4087.00
535.75	4174.00
535.88	4117.00
536.00	4114.00
536.13	4126.00
536.26	4154.00
536.39	4116.00
536.51	4100.00
536.64	4178.00
536.77	4148.00
536.89	4087.00
537.02	4168.00
537.15	4167.00
537.28	4143.00
537.40	4164.00
537.53	4152.00
537.66	4200.00
537.78	4209.00
537.91	4149.00
538.04	4162.00
538.17	4213.00
538.29	4169.00
538.42	4249.00
538.55	4220.00
538.67	4246.00
538.80	4157.00
538.93	4195.00
539.05	4224.00
539.18	4304.00
539.31	4281.00
539.44	4259.00
539.56	4177.00
539.69	4229.00
539.82	4194.00
539.94	4245.00
540.07	4236.00
540.20	4349.00
540.32	4229.00
540.45	4241.00
540.58	4241.00
540.71	4312.00
540.83	4234.00
540.96	4238.00
541.09	4296.00
541.21	4404.00
541.34	4350.00
541.47	4281.00
541.59	4326.00
541.72	4414.00
541.85	4507.00
541.98	4403.00
542.10	4338.00
542.23	4344.00
542.36	4414.00
542.48	4324.00
542.61	4359.00
542.74	4298.00
542.86	4340.00
542.99	4378.00
543.12	4321.00
543.24	4378.00
543.37	4304.00
543.50	4368.00
543.62	4327.00
543.75	4340.00
543.88	4361.00
544.01	4369.00
544.13	4440.00
544.26	4458.00
544.39	4369.00
544.51	4347.00
544.64	4340.00
544.77	4416.00
544.89	4378.00
545.02	4442.00
545.15	4380.00
545.27	4545.00
545.40	4551.00
545.53	4457.00
545.65	4462.00
545.78	4418.00
545.91	4368.00
546.03	4425.00
546.16	4451.00
546.29	4436.00
546.41	4419.00
546.54	4461.00
546.67	4450.00
546.79	4510.00
546.92	4557.00
547.05	4488.00
547.17	4477.00
547.30	4483.00
547.43	4529.00
547.56	4521.00
547.68	4475.00
547.81	4448.00
547.94	4530.00
548.06	4510.00
548.19	4494.00
548.32	4580.00
548.44	4517.00
548.57	4533.00
548.70	4586.00
548.82	4582.00
548.95	4564.00
549.08	4546.00
549.20	4510.00
549.33	4606.00
549.45	4584.00
549.58	4513.00
549.71	4494.00
549.83	4657.00
549.96	4555.00
550.09	4575.00
550.21	4575.00
550.34	4581.00
550.47	4571.00
550.59	4596.00
550.72	4541.00
550.85	4602.00
550.97	4682.00
551.10	4600.00
551.23	4586.00
551.35	4683.00
551.48	4653.00
551.61	4657.00
551.73	4644.00
551.86	4742.00
551.99	4696.00
552.11	4619.00
552.24	4689.00
552.37	4662.00
552.49	4680.00
552.62	4697.00
552.75	4710.00
552.87	4706.00
553.00	4683.00
553.12	4682.00
553.25	4679.00
553.38	4749.00
553.50	4750.00
553.63	4717.00
553.76	4662.00
553.88	4709.00
554.01	4674.00
554.14	4728.00
554.26	4749.00
554.39	4820.00
554.52	4735.00
554.64	4710.00
554.77	4779.00
554.89	4833.00
555.02	4866.00
555.15	4798.00
555.27	4716.00
555.40	4745.00
555.53	4875.00
555.65	4745.00
555.78	4734.00
555.91	4769.00
556.03	4880.00
556.16	4779.00
556.29	4792.00
556.41	4889.00
556.54	4932.00
556.66	4861.00
556.79	4804.00
556.92	4786.00
557.04	4869.00
557.17	4798.00
557.30	4853.00
557.42	4868.00
557.55	4843.00
557.67	4848.00
557.80	4848.00
557.93	4883.00
558.05	4918.00
558.18	4861.00
558.31	4879.00
558.43	4890.00
558.56	4934.00
558.68	4960.00
558.81	4891.00
558.94	4939.00
559.06	5021.00
559.19	4926.00
559.32	4918.00
559.44	4905.00
559.57	4952.00
559.69	4913.00
559.82	4973.00
559.95	4959.00
560.07	4914.00
560.20	4846.00
560.33	4898.00
560.45	4982.00
560.58	4939.00
560.70	4981.00
560.83	4952.00
560.96	5001.00
561.08	5010.00
561.21	5034.00
561.33	4967.00
561.46	4956.00
561.59	4999.00
561.71	4968.00
561.84	5030.00
561.97	5045.00
562.09	5111.00
562.22	5028.00
562.34	5000.00
562.47	5100.00
562.60	5113.00
562.72	5051.00
562.85	5057.00
562.97	5121.00
563.10	5053.00
563.23	5091.00
563.35	5066.00
563.48	5142.00
563.60	5071.00
563.73	5090.00
563.86	5072.00
563.98	5089.00
564.11	5071.00
564.23	5056.00
564.36	5148.00
564.49	5151.00
564.61	5196.00
564.74	5138.00
564.86	5101.00
564.99	5163.00
565.12	5149.00
565.24	5216.00
565.37	5232.00
565.49	5299.00
565.62	5252.00
565.75	5221.00
565.87	5105.00
566.00	5306.00
566.12	5256.00
566.25	5148.00
566.38	5168.00
566.50	5190.00
566.63	5230.00
566.75	5206.00
566.88	5140.00
567.01	5163.00
567.13	5210.00
567.26	5236.00
567.38	5172.00
567.51	5259.00
567.64	5182.00
567.76	5231.00
567.89	5216.00
568.01	5208.00
568.14	5194.00
568.26	5193.00
568.39	5176.00
568.52	5222.00
568.64	5280.00
568.77	5226.00
568.89	5247.00
569.02	5246.00
569.15	5241.00
569.27	5259.00
569.40	5251.00
569.52	5304.00
569.65	5256.00
569.77	5260.00
569.90	5211.00
570.03	5209.00
570.15	5273.00
570.28	5205.00
570.40	5284.00
570.53	5252.00
570.66	5299.00
570.78	5304.00
570.91	5255.00
571.03	5269.00
571.16	5278.00
571.28	5271.00
571.41	5226.00
571.54	5241.00
571.66	5243.00
571.79	5268.00
571.91	5306.00
572.04	5261.00
572.16	5318.00
572.29	5288.00
572.42	5184.00
572.54	5323.00
572.67	5257.00
572.79	5287.00
572.92	5302.00
573.04	5335.00
573.17	5349.00
573.29	5278.00
573.42	5281.00
573.55	5393.00
573.67	5342.00
573.80	5298.00
573.92	5276.00
574.05	5330.00
574.17	5380.00
574.30	5330.00
574.43	5344.00
574.55	5280.00
574.68	5349.00
574.80	5348.00
574.93	5282.00
575.05	5296.00
575.18	5279.00
575.30	5376.00
575.43	5405.00
575.56	5398.00
575.68	5361.00
575.81	5296.00
575.93	5260.00
576.06	5399.00
576.18	5381.00
576.31	5388.00
576.43	5335.00
576.56	5428.00
576.69	5429.00
576.81	5406.00
576.94	5337.00
577.06	5364.00
577.19	5393.00
577.31	5377.00
577.44	5397.00
577.56	5421.00
577.69	5388.00
577.82	5377.00
577.94	5350.00
578.07	5328.00
578.19	5416.00
578.32	5396.00
578.44	5383.00
578.57	5373.00
578.69	5400.00
578.82	5334.00
578.94	5438.00
579.07	5455.00
579.19	5425.00
579.32	5359.00
579.45	5366.00
579.57	5344.00
579.70	5354.00
579.82	5373.00
579.95	5379.00
580.07	5412.00
580.20	5392.00
580.32	5405.00
580.45	5396.00
580.57	5422.00
580.70	5382.00
580.82	5366.00
580.95	5414.00
581.08	5361.00
581.20	5430.00
581.33	5388.00
581.45	5388.00
581.58	5397.00
581.70	5460.00
581.83	5305.00
581.95	5312.00
582.08	5422.00
582.20	5387.00
582.33	5396.00
582.45	5389.00
582.58	5419.00
582.70	5481.00
582.83	5396.00
582.95	5369.00
583.08	5429.00
583.21	5458.00
583.33	5459.00
583.46	5386.00
583.58	5361.00
583.71	5402.00
583.83	5441.00
583.96	5463.00
584.08	5428.00
584.21	5494.00
584.33	5414.00
584.46	5371.00
584.58	5380.00
584.71	5465.00
584.83	5483.00
584.96	5450.00
585.08	5414.00
585.21	5553.00
585.33	5561.00
585.46	5466.00
585.58	5467.00
585.71	5368.00
585.83	5417.00
585.96	5470.00
586.08	5439.00
586.21	5489.00
586.33	5420.00
586.46	5364.00
586.59	5516.00
586.71	5386.00
586.84	5436.00
586.96	5417.00
587.09	5384.00
587.21	5402.00
587.34	5461.00
587.46	5414.00
587.59	5401.00
587.71	5481.00
587.84	5453.00
587.96	5377.00
588.09	5388.00
588.21	5480.00
588.34	5461.00
588.46	5469.00
588.59	5501.00
588.71	5474.00
588.84	5437.00
588.96	5460.00
589.09	5513.00
589.21	5493.00
589.34	5453.00
589.46	5452.00
589.59	5462.00
589.71	5508.00
589.84	5406.00
589.96	5425.00
590.09	5540.00
590.21	5503.00
590.34	5457.00
590.46	5469.00
590.59	5468.00
590.71	5499.00
590.84	5469.00
590.96	5428.00
591.09	5459.00
591.21	5501.00
591.34	5519.00
591.46	5440.00
591.59	5590.00
591.71	5589.00
591.83	5550.00
591.96	5401.00
592.08	5490.00
592.21	5548.00
592.33	5481.00
592.46	5494.00
592.58	5506.00
592.71	5564.00
592.83	5573.00
592.96	5457.00
593.08	5560.00
593.21	5502.00
593.33	5523.00
593.46	5467.00
593.58	5470.00
593.71	5551.00
593.83	5566.00
593.96	5448.00
594.08	5636.00
594.21	5569.00
594.33	5517.00
594.46	5474.00
594.58	5402.00
594.71	5392.00
594.83	5496.00
594.96	5447.00
595.08	5692.00
595.20	5606.00
595.33	5605.00
595.45	5516.00
595.58	5645.00
595.70	5553.00
595.83	5542.00
595.95	5464.00
596.08	5521.00
596.20	5420.00
596.33	5491.00
596.45	5501.00
596.58	5492.00
596.70	5483.00
596.83	5513.00
596.95	5499.00
597.08	5533.00
597.20	5448.00
597.32	5555.00
597.45	5523.00
597.57	5556.00
597.70	5576.00
597.82	5579.00
597.95	5554.00
598.07	5558.00
598.20	5577.00
598.32	5555.00
598.45	5561.00
598.57	5590.00
598.70	5594.00
598.82	5545.00
598.94	5510.00
599.07	5522.00
599.19	5524.00
599.32	5548.00
599.44	5458.00
599.57	5634.00
599.69	5559.00
599.82	5511.00
599.94	5467.00
600.07	5600.00
600.19	5595.00
600.31	5499.00
600.44	5592.00
600.56	5628.00
600.69	5632.00
600.81	5498.00
600.94	5529.00
601.06	5546.00
601.19	5603.00
601.31	5575.00
601.44	5530.00
601.56	5656.00
601.68	5611.00
601.81	5562.00
601.93	5532.00
602.06	5579.00
602.18	5485.00
602.31	5529.00
602.43	5613.00
602.56	5606.00
602.68	5581.00
602.80	5561.00
602.93	5553.00
603.05	5502.00
603.18	5551.00
603.30	5508.00
603.43	5516.00
603.55	5544.00
603.68	5612.00
603.80	5594.00
603.92	5590.00
604.05	5596.00
604.17	5508.00
604.30	5474.00
604.42	5536.00
604.55	5579.00
604.67	5585.00
604.79	5533.00
604.92	5535.00
605.04	5543.00
605.17	5556.00
605.29	5595.00
605.42	5517.00
605.54	5592.00
605.66	5592.00
605.79	5613.00
605.91	5546.00
606.04	5622.00
606.16	5552.00
606.29	5540.00
606.41	5604.00
606.53	5532.00
606.66	5494.00
606.78	5572.00
606.91	5565.00
607.03	5547.00
607.16	5570.00
607.28	5537.00
607.40	5568.00
607.53	5560.00
607.65	5506.00
607.78	5560.00
607.90	5572.00
608.03	5713.00
608.15	5609.00
608.27	5595.00
608.40	5585.00
608.52	5644.00
608.65	5574.00
608.77	5604.00
608.89	5549.00
609.02	5638.00
609.14	5663.00
609.27	5574.00
609.39	5624.00
609.52	5609.00
609.64	5512.00
609.76	5578.00
609.89	5584.00
610.01	5669.00
610.14	5608.00
610.26	5584.00
610.38	5609.00
610.51	5575.00
610.63	5569.00
610.76	5595.00
610.88	5601.00
611.01	5620.00
611.13	5658.00
611.25	5596.00
611.38	5566.00
611.50	5595.00
611.63	5608.00
611.75	5588.00
611.87	5674.00
612.00	5616.00
612.12	5635.00
612.25	5578.00
612.37	5571.00
612.49	5650.00
612.62	5619.00
612.74	5689.00
612.87	5538.00
612.99	5598.00
613.11	5575.00
613.24	5536.00
613.36	5600.00
613.49	5631.00
613.61	5549.00
613.73	5578.00
613.86	5612.00
613.98	5589.00
614.11	5663.00
614.23	5678.00
614.35	5660.00
614.48	5660.00
614.60	5572.00
614.72	5572.00
614.85	5633.00
614.97	5676.00
615.10	5648.00
615.22	5573.00
615.34	5620.00
615.47	5665.00
615.59	5572.00
615.72	5643.00
615.84	5661.00
615.96	5604.00
616.09	5716.00
616.21	5614.00
616.34	5571.00
616.46	5636.00
616.58	5635.00
616.71	5672.00
616.83	5661.00
616.95	5594.00
617.08	5651.00
617.20	5639.00
617.33	5556.00
617.45	5564.00
617.57	5552.00
617.70	5596.00
617.82	5602.00
617.95	5592.00
618.07	5703.00
618.19	5595.00
618.32	5635.00
618.44	5576.00
618.56	5545.00
618.69	5521.00
618.81	5548.00
618.94	5656.00
619.06	5566.00
619.18	5614.00
619.31	5560.00
619.43	5517.00
619.55	5589.00
619.68	5603.00
619.80	5588.00
619.92	5662.00
620.05	5701.00
620.17	5653.00
620.30	5584.00
620.42	5604.00
620.54	5633.00
620.67	5605.00
620.79	5604.00
620.91	5631.00
621.04	5652.00
621.16	5547.00
621.29	5622.00
621.41	5542.00
621.53	5534.00
621.66	5646.00
621.78	5601.00
621.90	5653.00
622.03	5676.00
622.15	5586.00
622.27	5545.00
622.40	5578.00
622.52	5557.00
622.64	5534.00
622.77	5471.00
622.89	5545.00
623.02	5603.00
623.14	5664.00
623.26	5575.00
623.39	5608.00
623.51	5680.00
623.63	5563.00
623.76	5527.00
623.88	5669.00
624.00	5607.00
624.13	5519.00
624.25	5556.00
624.37	5521.00
624.50	5624.00
624.62	5649.00
624.75	5533.00
624.87	5420.00
624.99	5595.00
625.12	5539.00
625.24	5525.00
625.36	5680.00
625.49	5598.00
625.61	5610.00
625.73	5562.00
625.86	5586.00
625.98	5573.00
626.10	5510.00
626.23	5484.00
626.35	5593.00
626.47	5521.00
626.60	5574.00
626.72	5525.00
626.84	5523.00
626.97	5565.00
627.09	5550.00
627.21	5569.00
627.34	5627.00
627.46	5597.00
627.58	5541.00
627.71	5567.00
627.83	5650.00
627.95	5537.00
628.08	5570.00
628.20	5557.00
628.32	5490.00
628.45	5461.00
628.57	5447.00
628.69	5482.00
628.82	5556.00
628.94	5588.00
629.06	5482.00
629.19	5552.00
629.31	5616.00
629.43	5500.00
629.56	5575.00
629.68	5530.00
629.80	5590.00
629.93	5493.00
630.05	5480.00
630.17	5514.00
630.30	5503.00
630.42	5472.00
630.54	5537.00
630.67	5496.00
630.79	5494.00
630.91	5673.00
631.04	5561.00
631.16	5560.00
631.28	5525.00
631.41	5482.00
631.53	5485.00
631.65	5547.00
631.78	5460.00
631.90	5483.00
632.02	5459.00
632.14	5354.00
632.27	5606.00
632.39	5563.00
632.51	5491.00
632.64	5525.00
632.76	5560.00
632.88	5470.00
633.01	5494.00
633.13	5446.00
633.25	5564.00
633.38	5650.00
633.50	5441.00
633.62	5430.00
633.75	5424.00
633.87	5411.00
633.99	5504.00
634.11	5436.00
634.24	5445.00
634.36	5489.00
634.48	5477.00
634.61	5422.00
634.73	5521.00
634.85	5464.00
634.98	5429.00
635.10	5409.00
635.22	5466.00
635.35	5588.00
635.47	5493.00
635.59	5482.00
635.71	5496.00
635.84	5538.00
635.96	5475.00
636.08	5518.00
636.21	5477.00
636.33	5449.00
636.45	5495.00
636.58	5458.00
636.70	5438.00
636.82	5507.00
636.94	5449.00
637.07	5428.00
637.19	5491.00
637.31	5495.00
637.44	5494.00
637.56	5420.00
637.68	5474.00
637.81	5453.00
637.93	5494.00
638.05	5391.00
638.17	5521.00
638.30	5543.00
638.42	5494.00
638.54	5423.00
638.67	5408.00
638.79	5502.00
638.91	5508.00
639.03	5411.00
639.16	5433.00
639.28	5433.00
639.40	5458.00
639.53	5406.00
639.65	5437.00
639.77	5378.00
639.89	5414.00
640.02	5437.00
640.14	5479.00
640.26	5418.00
640.39	5446.00
640.51	5426.00
640.63	5451.00
640.75	5505.00
640.88	5466.00
641.00	5400.00
641.12	5385.00
641.24	5546.00
641.37	5330.00
641.49	5376.00
641.61	5543.00
641.74	5373.00
641.86	5450.00
641.98	5432.00
642.10	5402.00
642.23	5449.00
642.35	5400.00
642.47	5411.00
642.60	5386.00
642.72	5456.00
642.84	5371.00
642.96	5366.00
643.09	5355.00
643.21	5392.00
643.33	5399.00
643.45	5398.00
643.58	5411.00
643.70	5466.00
643.82	5382.00
643.94	5376.00
644.07	5377.00
644.19	5385.00
644.31	5374.00
644.44	5371.00
644.56	5391.00
644.68	5386.00
644.80	5361.00
644.93	5365.00
645.05	5336.00
645.17	5427.00
645.29	5448.00
645.42	5380.00
645.54	5327.00
645.66	5444.00
645.78	5357.00
645.91	5334.00
646.03	5421.00
646.15	5468.00
646.27	5363.00
646.40	5430.00
646.52	5381.00
646.64	5394.00
646.76	5358.00
646.89	5345.00
647.01	5439.00
647.13	5425.00
647.25	5454.00
647.38	5367.00
647.50	5311.00
647.62	5467.00
647.74	5349.00
647.87	5302.00
647.99	5399.00
648.11	5444.00
648.23	5338.00
648.36	5357.00
648.48	5436.00
648.60	5361.00
648.72	5318.00
648.85	5296.00
648.97	5409.00
649.09	5346.00
649.21	5322.00
649.34	5390.00
649.46	5403.00
649.58	5336.00
649.70	5345.00
649.83	5273.00
649.95	5363.00
650.07	5369.00
650.19	5369.00
650.32	5333.00
650.44	5420.00
650.56	5369.00
650.68	5350.00
650.81	5366.00
650.93	5338.00
651.05	5406.00
651.17	5316.00
651.29	5342.00
651.42	5327.00
651.54	5359.00
651.66	5263.00
651.78	5272.00
651.91	5393.00
652.03	5452.00
652.15	5339.00
652.27	5311.00
652.40	5337.00
652.52	5320.00
652.64	5354.00
652.76	5321.00
652.88	5424.00
653.01	5306.00
653.13	5304.00
653.25	5280.00
653.37	5343.00
653.50	5390.00
653.62	5326.00
653.74	5249.00
653.86	5395.00
653.98	5335.00
654.11	5294.00
654.23	5304.00
654.35	5290.00
654.47	5434.00
654.60	5323.00
654.72	5296.00
654.84	5286.00
654.96	5372.00
655.08	5230.00
655.21	5282.00
655.33	5310.00
655.45	5320.00
655.57	5319.00
655.70	5298.00
655.82	5326.00
655.94	5359.00
656.06	5327.00
656.18	5221.00
656.31	5309.00
656.43	5353.00
656.55	5237.00
656.67	5273.00
656.79	5323.00
656.92	5354.00
657.04	5292.00
657.16	5224.00
657.28	5368.00
657.40	5278.00
657.53	5296.00
657.65	5261.00
657.77	5310.00
657.89	5278.00
658.01	5226.00
658.14	5270.00
658.26	5274.00
658.38	5206.00
658.50	5172.00
658.62	5217.00
658.75	5432.00
658.87	5314.00
658.99	5309.00
659.11	5252.00
659.23	5298.00
659.36	5385.00
659.48	5288.00
659.60	5258.00
659.72	5271.00
659.84	5186.00
659.97	5250.00
660.09	5269.00
660.21	5333.00
660.33	5257.00
660.45	5200.00
660.58	5135.00
660.70	5153.00
660.82	5252.00
660.94	5111.00
661.06	5219.00
661.19	5220.00
661.31	5205.00
661.43	5170.00
661.55	5179.00
661.67	5262.00
661.80	5277.00
661.92	5187.00
662.04	5216.00
662.16	5269.00
662.28	5263.00
662.40	5245.00
662.53	5208.00
662.65	5154.00
662.77	5163.00
662.89	5202.00
663.01	5170.00
663.14	5130.00
663.26	5214.00
663.38	5139.00
663.50	5115.00
663.62	5126.00
663.74	5131.00
663.87	5139.00
663.99	5159.00
664.11	5186.00
664.23	5253.00
664.35	5124.00
664.48	5094.00
664.60	5108.00
664.72	5148.00
664.84	5125.00
664.96	5159.00
665.08	5230.00
665.21	5177.00
665.33	5198.00
665.45	5085.00
665.57	5168.00
665.69	5153.00
665.81	5130.00
665.94	5066.00
666.06	5043.00
666.18	5110.00
666.30	5053.00
666.42	5068.00
666.54	5141.00
666.67	5131.00
666.79	5040.00
666.91	5130.00
667.03	5082.00
667.15	5047.00
667.27	5092.00
667.40	5023.00
667.52	5097.00
667.64	5104.00
667.76	5034.00
667.88	5026.00
668.00	5097.00
668.13	5156.00
668.25	5085.00
668.37	4994.00
668.49	5026.00
668.61	5096.00
668.73	5058.00
668.85	5082.00
668.98	5041.00
669.10	5050.00
669.22	5049.00
669.34	4995.00
669.46	5098.00
669.58	5034.00
669.71	5047.00
669.83	5028.00
669.95	5020.00
670.07	5024.00
670.19	5006.00
670.31	5072.00
670.43	5029.00
670.56	5081.00
670.68	5077.00
670.80	5066.00
670.92	5035.00
671.04	5142.00
671.16	5026.00
671.28	5009.00
671.41	4992.00
671.53	5087.00
671.65	5057.00
671.77	5006.00
671.89	5190.00
672.01	5121.00
672.13	5041.00
672.26	4970.00
672.38	5011.00
672.50	4986.00
672.62	5024.00
672.74	5039.00
672.86	5041.00
672.98	5012.00
673.11	4982.00
673.23	5023.00
673.35	5086.00
673.47	4981.00
673.59	5010.00
673.71	5021.00
673.83	5018.00
673.96	5125.00
674.08	4976.00
674.20	4917.00
674.32	4951.00
674.44	4977.00
674.56	5013.00
674.68	4957.00
674.80	5037.00
674.93	4993.00
675.05	4917.00
675.17	4985.00
675.29	5040.00
675.41	5031.00
675.53	4945.00
675.65	4923.00
675.77	4924.00
675.90	5010.00
676.02	4965.00
676.14	4930.00
676.26	5009.00
676.38	5055.00
676.50	4950.00
676.62	4969.00
676.74	4891.00
676.87	4922.00
676.99	4957.00
677.11	4956.00
677.23	4992.00
677.35	4951.00
677.47	4908.00
677.59	4869.00
677.71	4947.00
677.83	5034.00
677.96	4945.00
678.08	4962.00
678.20	4951.00
678.32	4887.00
678.44	4896.00
678.56	4937.00
678.68	5053.00
678.80	4998.00
678.93	4883.00
679.05	4952.00
679.17	4941.00
679.29	4996.00
679.41	4940.00
679.53	4877.00
679.65	4926.00
679.77	4919.00
679.89	4910.00
680.01	4965.00
680.14	4984.00
680.26	4932.00
680.38	4909.00
680.50	4969.00
680.62	4998.00
680.74	4898.00
680.86	4858.00
680.98	4918.00
681.10	4950.00
681.22	5090.00
681.35	4939.00
681.47	4808.00
681.59	4822.00
681.71	4993.00
681.83	4922.00
681.95	4904.00
682.07	5008.00
682.19	4980.00
682.31	4880.00
682.43	4828.00
682.56	4958.00
682.68	4890.00
682.80	4893.00
682.92	4900.00
683.04	4896.00
683.16	4830.00
683.28	4866.00
683.40	4929.00
683.52	4900.00
683.64	4995.00
683.76	4840.00
683.89	4818.00
684.01	4925.00
684.13	4925.00
684.25	4895.00
684.37	4905.00
684.49	4921.00
684.61	4922.00
684.73	4883.00
684.85	4914.00
684.97	4889.00
685.09	4995.00
685.21	4858.00
685.34	4865.00
685.46	4968.00
685.58	4901.00
685.70	4913.00
685.82	4875.00
685.94	4849.00
686.06	4860.00
686.18	4881.00
686.30	4849.00
686.42	4859.00
686.54	4893.00
686.66	4840.00
686.79	4953.00
686.91	4916.00
687.03	4945.00
687.15	4943.00
687.27	4905.00
687.39	4918.00
687.51	4959.00
687.63	4867.00
687.75	4865.00
687.87	4907.00
687.99	4950.00
688.11	4855.00
688.23	4928.00
688.35	4978.00
688.48	4946.00
688.60	4867.00
688.72	4902.00
688.84	4886.00
688.96	4945.00
689.08	4906.00
689.20	4847.00
689.32	5024.00
689.44	4945.00
689.56	4851.00
689.68	4855.00
689.80	4888.00
689.92	4842.00
690.04	4863.00
690.16	4900.00
690.28	4928.00
690.41	4961.00
690.53	4872.00
690.65	4919.00
690.77	4935.00
690.89	4910.00
691.01	4868.00
691.13	4864.00
691.25	4840.00
691.37	4845.00
691.49	4894.00
691.61	4825.00
691.73	4933.00
691.85	4881.00
691.97	4878.00
692.09	4899.00
692.21	4966.00
692.33	4960.00
692.45	4934.00
692.57	4841.00
692.70	4865.00
692.82	4923.00
692.94	4844.00
693.06	4878.00
693.18	4900.00
693.30	4824.00
693.42	4844.00
693.54	4847.00
693.66	4907.00
693.78	4911.00
693.90	4879.00
694.02	4936.00
694.14	4852.00
694.26	4874.00
694.38	4933.00
694.50	4886.00
694.62	4942.00
694.74	4885.00
694.86	4851.00
694.98	4955.00
695.10	4950.00
695.22	4936.00
695.34	4867.00
695.46	4849.00
695.58	4916.00
695.71	4922.00
695.83	4857.00
695.95	4924.00
696.07	4986.00
696.19	4865.00
696.31	4888.00
696.43	4828.00
696.55	4995.00
696.67	4924.00
696.79	4886.00
696.91	4894.00
697.03	4908.00
697.15	5049.00
697.27	4986.00
697.39	4875.00
697.51	4970.00
697.63	4904.00
697.75	4879.00
697.87	4933.00
697.99	4854.00
698.11	4829.00
698.23	4881.00
698.35	4854.00
698.47	4913.00
698.59	4909.00
698.71	4931.00
698.83	4970.00
698.95	4908.00
699.07	4928.00
699.19	4934.00
699.31	4896.00
699.43	4893.00
699.55	4960.00
699.67	4866.00
699.79	4887.00
699.91	4924.00
700.03	4945.00
700.15	4900.00
700.27	4924.00
700.39	4942.00
700.51	4912.00
700.63	4905.00
700.75	4897.00
700.87	4949.00
700.99	4865.00
701.11	4948.00
701.24	4921.00
701.36	5019.00
701.48	4974.00
701.60	4969.00
701.72	4855.00
701.84	4988.00
701.96	4974.00
702.08	4926.00
702.20	5054.00
702.32	5012.00
702.44	5032.00
702.56	4948.00
702.68	4922.00
702.80	4963.00
702.92	4988.00
703.04	4980.00
703.16	4968.00
703.28	4988.00
703.40	4933.00
703.52	4956.00
703.64	4946.00
703.76	4954.00
703.88	4894.00
704.00	4914.00
704.12	4913.00
704.24	4962.00
704.36	4932.00
704.48	4954.00
704.60	4905.00
704.72	4944.00
704.84	4932.00
704.96	4974.00
705.07	4941.00
705.19	4906.00
705.31	4920.00
705.43	4930.00
705.55	4893.00
705.67	4975.00
705.79	4953.00
705.91	4864.00
706.03	4914.00
706.15	4961.00
706.27	4974.00
706.39	4927.00
706.51	4932.00
706.63	4870.00
706.75	4991.00
706.87	5009.00
706.99	4988.00
707.11	4982.00
707.23	4922.00
707.35	4979.00
707.47	4925.00
707.59	4984.00
707.71	4994.00
707.83	4954.00
707.95	4981.00
708.07	4970.00
708.19	5061.00
708.31	4971.00
708.43	4896.00
708.55	4953.00
708.67	5022.00
708.79	5014.00
708.91	4998.00
709.03	5020.00
709.15	5033.00
709.27	4949.00
709.39	4942.00
709.51	5001.00
709.63	5015.00
709.75	4976.00
709.87	4935.00
709.99	5004.00
710.11	4963.00
710.23	4945.00
710.35	4951.00
710.47	5066.00
710.58	5003.00
710.70	5022.00
710.82	4983.00
710.94	4979.00
711.06	5033.00
711.18	4980.00
711.30	4917.00
711.42	5014.00
711.54	4985.00
711.66	4983.00
711.78	4944.00
711.90	4999.00
712.02	5016.00
712.14	4917.00
712.26	4880.00
712.38	5005.00
712.50	5033.00
712.62	4968.00
712.74	4914.00
712.86	4933.00
712.98	4995.00
713.10	4898.00
713.22	4869.00
713.34	4983.00
713.45	4934.00
713.57	4943.00
713.69	4916.00
713.81	4966.00
713.93	4952.00
714.05	4986.00
714.17	4879.00
714.29	5005.00
714.41	5052.00
714.53	4966.00
714.65	4953.00
714.77	4999.00
714.89	4907.00
715.01	5044.00
715.13	4926.00
715.25	4989.00
715.37	4940.00
715.49	4926.00
715.61	4969.00
715.72	5009.00
715.84	5003.00
715.96	4941.00
716.08	4938.00
716.20	4990.00
716.32	4989.00
716.44	4910.00
716.56	4899.00
716.68	4950.00
716.80	5063.00
716.92	5062.00
717.04	4952.00
717.16	5029.00
717.28	4941.00
717.40	4914.00
717.52	4951.00
717.63	4941.00
717.75	4965.00
717.87	4932.00
717.99	4927.00
718.11	4921.00
718.23	5015.00
718.35	4984.00
718.47	4944.00
718.59	4892.00
718.71	4906.00
718.83	4890.00
718.95	4941.00
719.07	4902.00
719.19	4903.00
719.30	4885.00
719.42	4953.00
719.54	4892.00
719.66	4975.00
719.78	4898.00
719.90	4852.00
720.02	4901.00
720.14	4928.00
720.26	4979.00
720.38	4952.00
720.50	4886.00
720.62	4804.00
720.74	4883.00
720.85	4876.00
720.97	4969.00
721.09	4969.00
721.21	4881.00
721.33	4944.00
721.45	4939.00
721.57	4907.00
721.69	4880.00
721.81	4819.00
721.93	4972.00
722.05	4923.00
722.16	4857.00
722.28	4847.00
722.40	4865.00
722.52	4931.00
722.64	5000.00
722.76	4839.00
722.88	4905.00
723.00	4930.00
723.12	4892.00
723.24	4903.00
723.36	4844.00
723.47	4961.00
723.59	4892.00
723.71	4841.00
723.83	4888.00
723.95	4825.00
724.07	4908.00
724.19	4916.00
724.31	4965.00
724.43	4891.00
724.55	4860.00
724.66	4828.00
724.78	5097.00
724.90	4832.00
725.02	4841.00
725.14	4791.00
725.26	4883.00
725.38	4823.00
725.50	4905.00
725.62	4876.00
725.74	4909.00
725.85	4862.00
725.97	4916.00
726.09	4957.00
726.21	5219.00
726.33	4944.00
726.45	4918.00
726.57	4931.00
726.69	4956.00
726.81	4901.00
726.92	4868.00
727.04	4881.00
727.16	4888.00
727.28	4901.00
727.40	4920.00
727.52	4901.00
727.64	5037.00
727.76	5001.00
727.88	4933.00
727.99	4862.00
728.11	4881.00
728.23	4913.00
728.35	4859.00
728.47	4828.00
728.59	4886.00
728.71	4907.00
728.83	4898.00
728.94	4916.00
729.06	4949.00
729.18	4949.00
729.30	4880.00
729.42	4889.00
729.54	4967.00
729.66	4998.00
729.78	4825.00
729.90	4837.00
730.01	4910.00
730.13	4814.00
730.25	4883.00
730.37	4851.00
730.49	4891.00
730.61	4902.00
730.73	4841.00
730.84	4900.00
730.96	4865.00
731.08	4902.00
731.20	4871.00
731.32	4895.00
731.44	5035.00
731.56	4836.00
731.68	4862.00
731.79	4873.00
731.91	4884.00
732.03	4875.00
732.15	4861.00
732.27	4857.00
732.39	4841.00
732.51	4853.00
732.62	4879.00
732.74	4848.00
732.86	4922.00
732.98	4873.00
733.10	4797.00
733.22	4824.00
733.34	4905.00
733.45	4777.00
733.57	4822.00
733.69	4776.00
733.81	4805.00
733.93	4840.00
734.05	4733.00
734.17	4791.00
734.28	4821.00
734.40	4839.00
734.52	4761.00
734.64	4834.00
734.76	4878.00
734.88	4807.00
735.00	4803.00
735.11	4820.00
735.23	4912.00
735.35	4810.00
735.47	4756.00
735.59	4911.00
735.71	4881.00
735.83	4830.00
735.94	4857.00
736.06	4805.00
736.18	4839.00
736.30	4865.00
736.42	4814.00
736.54	4739.00
736.65	4831.00
736.77	4936.00
736.89	4848.00
737.01	4763.00
737.13	4875.00
737.25	4724.00
737.36	4720.00
737.48	4795.00
737.60	4803.00
737.72	4769.00
737.84	4796.00
737.96	4838.00
738.08	4765.00
738.19	4887.00
738.31	4782.00
738.43	4750.00
738.55	4776.00
738.67	4840.00
738.79	4751.00
738.90	4769.00
739.02	4800.00
739.14	4766.00
739.26	4726.00
739.38	4773.00
739.50	4800.00
739.61	4802.00
739.73	4805.00
739.85	4775.00
739.97	4783.00
740.09	4778.00
740.20	4716.00
740.32	4779.00
740.44	4836.00
740.56	4708.00
740.68	4777.00
740.80	4742.00
740.91	4746.00
741.03	4750.00
741.15	4737.00
741.27	4674.00
741.39	4817.00
741.51	4795.00
741.62	4777.00
741.74	4738.00
741.86	4721.00
741.98	4691.00
742.10	4768.00
742.21	4719.00
742.33	4740.00
742.45	4667.00
742.57	4802.00
742.69	4661.00
742.80	4726.00
742.92	4703.00
743.04	4705.00
743.16	4682.00
743.28	4742.00
743.40	4672.00
743.51	4668.00
743.63	4706.00
743.75	4676.00
743.87	4701.00
743.99	4663.00
744.10	4653.00
744.22	4710.00
744.34	4673.00
744.46	4702.00
744.58	4707.00
744.69	4624.00
744.81	4669.00
744.93	4616.00
745.05	4614.00
745.17	4721.00
745.28	4737.00
745.40	4662.00
745.52	4629.00
745.64	4682.00
745.76	4737.00
745.87	4643.00
745.99	4644.00
746.11	4686.00
746.23	4559.00
746.35	4648.00
746.46	4629.00
746.58	4720.00
746.70	4665.00
746.82	4638.00
746.94	4650.00
747.05	4566.00
747.17	4579.00
747.29	4604.00
747.41	4572.00
747.53	4755.00
747.64	4536.00
747.76	4668.00
747.88	4649.00
748.00	4640.00
748.12	4627.00
748.23	4645.00
748.35	4620.00
748.47	4627.00
748.59	4633.00
748.70	4548.00
748.82	4549.00
748.94	4528.00
749.06	4576.00
749.18	4559.00
749.29	4519.00
749.41	4578.00
749.53	4576.00
749.65	4509.00
749.76	4588.00
749.88	4602.00
750.00	4585.00
750.12	4587.00
750.24	4564.00
750.35	4506.00
750.47	4473.00
750.59	4586.00
750.71	4508.00
750.82	4601.00
750.94	4521.00
751.06	4547.00
751.18	4488.00
751.30	4555.00
751.41	4581.00
751.53	4546.00
751.65	4513.00
751.77	4524.00
751.88	4558.00
752.00	4592.00
752.12	4496.00
752.24	4566.00
752.35	4504.00
752.47	4513.00
752.59	4507.00
752.71	4560.00
752.83	4438.00
752.94	4525.00
753.06	4452.00
753.18	4482.00
753.30	4425.00
753.41	4405.00
753.53	4464.00
753.65	4451.00
753.77	4473.00
753.88	4444.00
754.00	4422.00
754.12	4439.00
754.24	4488.00
754.35	4384.00
754.47	4385.00
754.59	4483.00
754.71	4432.00
754.82	4433.00
754.94	4410.00
755.06	4479.00
755.18	4459.00
755.29	4453.00
755.41	4378.00
755.53	4402.00
755.65	4345.00
755.76	4388.00
755.88	4356.00
756.00	4455.00
756.12	4355.00
756.23	4275.00
756.35	4332.00
756.47	4383.00
756.59	4388.00
756.70	4283.00
756.82	4289.00
756.94	4362.00
757.06	4368.00
757.17	4362.00
757.29	4359.00
757.41	4347.00
757.53	4337.00
757.64	4320.00
757.76	4341.00
757.88	4342.00
758.00	4363.00
758.11	4287.00
758.23	4211.00
758.35	4295.00
758.47	4262.00
758.58	4326.00
758.70	4286.00
758.82	4296.00
758.94	4167.00
759.05	4285.00
759.17	4218.00
759.29	4256.00
759.40	4339.00
759.52	4258.00
759.64	4278.00
759.76	4278.00
759.87	4329.00
759.99	4270.00
760.11	4228.00
760.23	4219.00
760.34	4284.00
760.46	4245.00
760.58	4198.00
760.70	4220.00
760.81	4262.00
760.93	4222.00
761.05	4266.00
761.16	4267.00
761.28	4216.00
761.40	4195.00
761.52	4181.00
761.63	4239.00
761.75	4236.00
761.87	4195.00
761.98	4160.00
762.10	4195.00
762.22	4213.00
762.34	4231.00
762.45	4178.00
762.57	4248.00
762.69	4331.00
762.81	4110.00
762.92	4176.00
763.04	4085.00
763.16	4183.00
763.27	4187.00
763.39	4095.00
763.51	4160.00
763.63	4212.00
763.74	4140.00
763.86	4103.00
763.98	4048.00
764.09	4092.00
764.21	4122.00
764.33	4070.00
764.44	4094.00
764.56	4082.00
764.68	4065.00
764.80	4116.00
764.91	4024.00
765.03	4144.00
765.15	4093.00
765.26	4063.00
765.38	4044.00
765.50	4129.00
765.62	4091.00
765.73	4068.00
765.85	4062.00
765.97	4033.00
766.08	4041.00
766.20	4099.00
766.32	4069.00
766.43	4063.00
766.55	4082.00
766.67	4010.00
766.79	4025.00
766.90	4009.00
767.02	3974.00
767.14	3960.00
767.25	3927.00
767.37	4118.00
767.49	4030.00
767.60	3992.00
767.72	4076.00
767.84	4036.00
767.95	4017.00
768.07	3981.00
768.19	4025.00
768.31	4037.00
768.42	3964.00
768.54	3956.00
768.66	4014.00
768.77	4017.00
768.89	4012.00
769.01	3942.00
769.12	3962.00
769.24	3958.00
769.36	3951.00
769.47	3916.00
769.59	3881.00
769.71	3965.00
769.82	3912.00
769.94	3860.00
770.06	3871.00
770.17	3998.00
770.29	3929.00
770.41	3918.00
770.53	3938.00
770.64	3877.00
770.76	3899.00
770.88	3913.00
770.99	3934.00
771.11	3867.00
771.23	3897.00
771.34	3856.00
771.46	3948.00
771.58	3939.00
771.69	3888.00
771.81	3847.00
771.93	3926.00
772.04	3776.00
772.16	3850.00
772.28	3858.00
772.39	3881.00
772.51	3817.00
772.63	3867.00
772.74	3806.00
772.86	3762.00
772.98	3947.00
773.09	3779.00
773.21	3789.00
773.33	3835.00
773.44	3832.00
773.56	3817.00
773.68	3774.00
773.79	3850.00
773.91	3753.00
774.03	3774.00
774.14	3769.00
774.26	3791.00
774.38	3748.00
774.49	3672.00
774.61	3734.00
774.73	3765.00
774.84	3708.00
774.96	3707.00
775.08	3777.00
775.19	3757.00
775.31	3769.00
775.43	3721.00
775.54	3701.00
775.66	3655.00
775.77	3769.00
775.89	3679.00
776.01	3702.00
776.12	3756.00
776.24	3725.00
776.36	3620.00
776.47	3683.00
776.59	3695.00
776.71	3732.00
776.82	3534.00
776.94	3614.00
777.06	3656.00
777.17	3720.00
777.29	3620.00
777.41	3634.00
777.52	3692.00
777.64	3644.00
777.75	3673.00
777.87	3571.00
777.99	3600.00
778.10	3686.00
778.22	3586.00
778.34	3622.00
778.45	3646.00
778.57	3681.00
778.69	3658.00
778.80	3591.00
778.92	3715.00
779.04	3616.00
779.15	3600.00
779.27	3637.00
779.38	3620.00
779.50	3658.00
779.62	3502.00
779.73	3547.00
779.85	3486.00
779.97	3675.00
780.08	3565.00
780.20	3536.00
780.31	3608.00
780.43	3562.00
780.55	3509.00
780.66	3557.00
780.78	3559.00
780.90	3632.00
781.01	3508.00
781.13	3504.00
781.25	3483.00
781.36	3552.00
781.48	3480.00
781.59	3497.00
781.71	3520.00
781.83	3489.00
781.94	3448.00
782.06	3468.00
782.18	3557.00
782.29	3459.00
782.41	3406.00
782.52	3540.00
782.64	3501.00
782.76	3438.00
782.87	3444.00
782.99	3386.00
783.10	3593.00
783.22	3627.00
783.34	3465.00
783.45	3420.00
783.57	3446.00
783.69	3443.00
783.80	3454.00
783.92	3442.00
784.03	3418.00
784.15	3379.00
784.27	3416.00
784.38	3393.00
784.50	3352.00
784.61	3413.00
784.73	3322.00
784.85	3366.00
784.96	3366.00
785.08	3442.00
785.19	3395.00
785.31	3350.00
785.43	3354.00
785.54	3344.00
785.66	3368.00
785.77	3374.00
785.89	3372.00
786.01	3319.00
786.12	3354.00
786.24	3350.00
786.35	3454.00
786.47	3319.00
786.59	3325.00
786.70	3274.00
786.82	3350.00
786.93	3324.00
787.05	3316.00
787.17	3334.00
787.28	3335.00
787.40	3329.00
787.51	3318.00
787.63	3325.00
787.75	3244.00
787.86	3286.00
787.98	3284.00
788.09	3274.00
788.21	3305.00
788.33	3297.00
788.44	3304.00
788.56	3218.00
788.67	3262.00
788.79	3237.00
788.91	3234.00
789.02	3234.00
789.14	3244.00
789.25	3290.00
789.37	3245.00
789.48	3209.00
789.60	3251.00
789.72	3200.00
789.83	3228.00
789.95	3250.00
790.06	3156.00
790.18	3147.00
790.30	3254.00
790.41	3217.00
790.53	3189.00
790.64	3136.00
790.76	3135.00
790.87	3172.00
790.99	3165.00
791.11	3211.00
791.22	3131.00
791.34	3168.00
791.45	3173.00
791.57	3176.00
791.68	3111.00
791.80	3136.00
791.92	3198.00
792.03	3113.00
792.15	3066.00
792.26	3109.00
792.38	3074.00
792.49	3222.00
792.61	3129.00
792.73	3140.00
792.84	3127.00
792.96	3216.00
793.07	3108.00
793.19	3953.00
793.30	3225.00
793.42	3160.00
793.54	3040.00
793.65	3026.00
793.77	3236.00
793.88	3062.00
794.00	3033.00
794.11	3081.00
794.23	3034.00
794.34	3094.00
794.46	3000.00
794.58	3051.00
794.69	3139.00
794.81	3092.00
794.92	3030.00
795.04	3016.00
795.15	3124.00
795.27	3095.00
795.39	3060.00
795.50	3024.00
795.62	3004.00
795.73	3002.00
795.85	3006.00
795.96	3024.00
796.08	3073.00
796.19	2984.00
796.31	2968.00
796.42	2952.00
796.54	3007.00
796.66	3066.00
796.77	2970.00
796.89	2905.00
797.00	3024.00
797.12	2898.00
797.23	2956.00
797.35	2930.00
797.46	3029.00
797.58	3052.00
797.69	2984.00
797.81	2946.00
797.93	2984.00
798.04	2928.00
798.16	2935.00
798.27	2975.00
798.39	2924.00
798.50	2891.00
798.62	2907.00
798.73	2898.00
798.85	3000.00
798.96	2889.00
799.08	2950.00
799.19	2973.00
799.31	2911.00
799.43	2889.00
799.54	2879.00
799.66	2933.00
799.77	2910.00
799.89	2854.00
800.00	2814.00
800.12	2884.00
800.23	2944.00
800.35	2940.00
800.46	2752.00
800.58	2773.00
800.69	2857.00
800.81	2850.00
800.92	2830.00
801.04	2849.00
801.16	2785.00
801.27	2777.00
801.39	2798.00
801.50	2814.00
801.62	2792.00
801.73	2866.00
801.85	2855.00
801.96	2817.00
802.08	2902.00
802.19	2858.00
802.31	2790.00
802.42	2819.00
802.54	2921.00
802.65	2860.00
802.77	2755.00
802.88	2791.00
803.00	2752.00
803.11	2903.00
803.23	2809.00
803.34	2796.00
803.46	2777.00
803.57	2734.00
803.69	2798.00
803.80	2708.00
803.92	2830.00
804.03	2808.00
804.15	2762.00
804.26	2772.00
804.38	2781.00
804.50	2711.00
804.61	2728.00
804.73	2744.00
804.84	2770.00
804.96	2658.00
805.07	2714.00
805.19	2670.00
805.30	2721.00
805.42	2758.00
805.53	2695.00
805.65	2683.00
805.76	2648.00
805.88	2600.00
805.99	2640.00
806.11	2655.00
806.22	2627.00
806.34	2638.00
806.45	2649.00
806.57	2621.00
806.68	2630.00
806.80	2522.00
806.91	2560.00
807.03	2528.00
807.14	2524.00
807.26	2502.00
807.37	2456.00
807.49	2528.00
807.60	2518.00
807.72	2647.00
807.83	2593.00
807.95	2491.00
808.06	2540.00
808.17	2509.00
808.29	2497.00
808.40	2410.00
808.52	2451.00
808.63	2441.00
808.75	2440.00
808.86	2394.00
808.98	2419.00
809.09	2348.00
809.21	2390.00
809.32	2349.00
809.44	2389.00
809.55	2336.00
809.67	2330.00
809.78	2289.00
809.90	2362.00
810.01	2388.00
810.13	2274.00
810.24	2331.00
810.36	2216.00
810.47	2266.00
810.59	2254.00
810.70	2257.00
810.82	2300.00
810.93	2184.00
811.05	2165.00
811.16	2187.00
811.27	2181.00
811.39	2151.00
811.50	2217.00
811.62	2066.00
811.73	2081.00
811.85	2155.00
811.96	2125.00
812.08	2145.00
812.19	2131.00
812.31	2108.00
812.42	2072.00
812.54	2045.00
812.65	2101.00
812.77	2091.00
812.88	2051.00
813.00	2081.00
813.11	2044.00
813.22	1938.00
813.34	1978.00
813.45	1995.00
813.57	2064.00
813.68	2066.00
813.80	1957.00
813.91	1919.00
814.03	1925.00
814.14	2003.00
814.26	1865.00
814.37	1884.00
814.49	1872.00
814.60	1855.00
814.71	1847.00
814.83	1861.00
814.94	1801.00
815.06	1832.00
815.17	1807.00
815.29	1805.00
815.40	1765.00
815.52	1858.00
815.63	1762.00
815.75	1749.00
815.86	1763.00
815.97	1705.00
816.09	1738.00
816.20	1746.00
816.32	1765.00
816.43	1635.00
816.55	1681.00
816.66	1696.00
816.78	1808.00
816.89	1679.00
817.00	1668.00
817.12	1625.00
817.23	1604.00
817.35	1665.00
817.46	1619.00
817.58	1586.00
817.69	1708.00
817.81	1595.00
817.92	1602.00
818.03	1569.00
818.15	1562.00
818.26	1522.00
818.38	1495.00
818.49	1535.00
818.61	1542.00
818.72	1470.00
818.83	2611.00
818.95	1658.00
819.06	1473.00
819.18	1487.00
819.29	1475.00
819.41	1469.00
819.52	1472.00
819.64	1459.00
819.75	1409.00
819.86	1351.00
819.98	1400.00
820.09	1421.00
820.21	1377.00
820.32	1333.00
820.44	1377.00
820.55	1430.00
820.66	1321.00
820.78	1394.00
820.89	1318.00
821.01	1372.00
821.12	1340.00
821.23	1316.00
821.35	1293.00
821.46	1338.00
821.58	1298.00
821.69	1257.00
821.81	1263.00
821.92	1310.00
822.03	1240.00
822.15	1257.00
822.26	1188.00
822.38	1197.00
822.49	1221.00
822.61	1189.00
822.72	1216.00
822.83	1264.00
822.95	1187.00
823.06	1165.00
823.18	1199.00
823.29	1250.00
823.40	1200.00
823.52	1142.00
823.63	1083.00
823.75	1226.00
823.86	1132.00
823.97	1066.00
824.09	1161.00
824.20	1084.00
824.32	1100.00
824.43	1061.00
824.55	1126.00
824.66	1157.00
824.77	1072.00
824.89	1073.00
825.00	1132.00
825.12	1062.00
825.23	1052.00
825.34	977.00
825.46	988.00
825.57	1072.00
825.69	1006.00
825.80	936.00
825.91	973.00
826.03	949.00
826.14	1021.00
826.26	930.00
826.37	971.00
826.48	930.00
826.60	963.00
826.71	954.00
826.83	963.00
826.94	983.00
827.05	983.00
827.17	978.00
827.28	922.00
827.39	897.00
827.51	872.00
827.62	909.00
827.74	917.00
827.85	884.00
827.96	882.00
828.08	884.00
828.19	1005.00
828.31	885.00
828.42	833.00
828.53	888.00
828.65	936.00
828.76	928.00
828.87	892.00
828.99	842.00
