Wavelength (nm)	Intensity
377.35	825.50
377.48	595.62
377.62	605.62
377.75	620.62
377.88	847.75
378.02	828.88
378.15	822.38
378.28	792.50
378.41	876.12
378.55	846.12
378.68	822.88
378.81	804.38
378.95	835.88
379.08	834.25
379.21	790.38
379.35	849.00
379.48	862.88
379.61	920.25
379.74	842.12
379.88	826.50
380.01	914.38
380.14	979.88
380.28	897.25
380.41	817.88
380.54	873.38
380.68	885.75
380.81	796.62
380.94	895.38
381.07	931.62
381.21	937.62
381.34	844.38
381.47	795.50
381.61	1010.62
381.74	866.12
381.87	819.25
382.00	880.62
382.14	952.25
382.27	900.38
382.40	841.62
382.54	919.88
382.67	930.25
382.80	828.88
382.93	830.12
383.07	858.25
383.20	861.00
383.33	899.75
383.47	832.38
383.60	815.25
383.73	1014.75
383.86	894.50
384.00	853.25
384.13	851.12
384.26	904.50
384.40	912.38
384.53	851.00
384.66	907.75
384.79	888.75
384.93	847.62
385.06	844.62
385.19	867.88
385.33	987.00
385.46	904.88
385.59	833.00
385.72	875.25
385.86	804.12
385.99	851.88
386.12	848.62
386.25	828.12
386.39	909.25
386.52	938.00
386.65	862.25
386.79	847.12
386.92	856.38
387.05	959.75
387.18	818.12
387.32	830.50
387.45	903.50
387.58	882.00
387.71	851.88
387.85	841.25
387.98	881.25
388.11	903.62
388.25	877.25
388.38	860.38
388.51	904.38
388.64	921.38
388.78	844.88
388.91	824.75
389.04	867.38
389.17	984.50
389.31	872.12
389.44	901.00
389.57	935.38
389.70	907.38
389.84	850.00
389.97	847.12
390.10	858.25
390.24	907.00
390.37	862.00
390.50	848.88
390.63	946.12
390.77	880.75
390.90	881.75
391.03	872.12
391.16	829.00
391.30	859.75
391.43	859.25
391.56	857.50
391.69	845.38
391.83	932.75
391.96	884.25
392.09	858.25
392.22	971.50
392.36	900.50
392.49	843.38
392.62	868.50
392.75	907.50
392.89	946.75
393.02	845.25
393.15	839.38
393.28	831.38
393.42	974.25
393.55	827.38
393.68	857.75
393.81	811.50
393.95	865.75
394.08	849.38
394.21	858.75
394.34	921.50
394.48	914.88
394.61	914.00
394.74	891.00
394.87	933.50
395.01	913.75
395.14	908.00
395.27	849.75
395.40	979.88
395.54	981.12
395.67	882.38
395.80	871.25
395.93	913.00
396.07	865.62
396.20	856.25
396.33	815.12
396.46	878.75
396.59	892.25
396.73	875.38
396.86	850.25
396.99	943.62
397.12	908.38
397.26	902.50
397.39	877.25
397.52	1184.50
397.65	1007.88
397.79	890.62
397.92	871.62
398.05	941.88
398.18	879.12
398.32	876.88
398.45	912.25
398.58	919.12
398.71	916.25
398.84	843.25
398.98	879.75
399.11	925.12
399.24	912.00
399.37	878.25
399.51	848.00
399.64	900.25
399.77	901.50
399.90	886.38
400.03	889.12
400.17	851.75
400.30	960.75
400.43	920.25
400.56	888.75
400.70	898.12
400.83	876.88
400.96	866.25
401.09	900.75
401.23	906.88
401.36	966.88
401.49	871.38
401.62	893.00
401.75	889.62
401.89	869.75
402.02	890.88
402.15	888.25
402.28	918.25
402.41	914.50
402.55	878.38
402.68	893.00
402.81	972.38
402.94	944.00
403.08	876.75
403.21	854.75
403.34	941.38
403.47	946.00
403.60	881.75
403.74	920.62
403.87	945.25
404.00	878.50
404.13	878.88
404.26	848.38
404.40	862.38
404.53	918.50
404.66	889.25
404.79	861.38
404.93	945.88
405.06	918.50
405.19	848.00
405.32	909.50
405.45	932.12
405.59	949.25
405.72	905.62
405.85	871.62
405.98	1081.00
406.11	880.62
406.25	874.75
406.38	892.62
406.51	941.38
406.64	907.62
406.77	866.62
406.91	866.00
407.04	938.75
407.17	900.88
407.30	921.25
407.43	901.38
407.57	991.12
407.70	977.25
407.83	881.75
407.96	908.25
408.09	880.25
408.23	1012.75
408.36	904.75
408.49	897.12
408.62	1031.62
408.75	931.38
408.89	885.75
409.02	925.25
409.15	923.75
409.28	1009.50
409.41	934.12
409.55	893.12
409.68	1043.38
409.81	940.00
409.94	890.62
410.07	920.75
410.20	940.00
410.34	909.88
410.47	920.25
410.60	924.38
410.73	960.38
410.86	894.62
411.00	923.50
411.13	893.50
411.26	934.12
411.39	937.38
411.52	938.75
411.66	900.62
411.79	913.50
411.92	902.75
412.05	918.50
412.18	904.12
412.31	951.50
412.45	968.88
412.58	961.25
412.71	878.88
412.84	950.00
412.97	1020.62
413.11	937.75
413.24	945.62
413.37	982.88
413.50	1041.38
413.63	938.62
413.76	917.75
413.90	960.38
414.03	924.38
414.16	912.75
414.29	942.62
414.42	942.88
414.56	1050.88
414.69	913.00
414.82	924.12
414.95	935.12
415.08	961.88
415.21	926.75
415.35	947.38
415.48	866.12
415.61	989.62
415.74	991.00
415.87	893.38
416.00	956.62
416.14	1062.38
416.27	947.12
416.40	908.12
416.53	939.00
416.66	964.62
416.79	946.25
416.93	905.62
417.06	1005.38
417.19	944.00
417.32	926.62
417.45	915.75
417.58	901.38
417.72	999.50
417.85	920.75
417.98	931.75
418.11	981.62
418.24	916.50
418.37	924.50
418.51	936.75
418.64	954.88
418.77	1037.38
418.90	960.50
419.03	908.75
419.16	963.12
419.29	1001.62
419.43	927.50
419.56	909.12
419.69	1069.50
419.82	1013.88
419.95	948.12
420.08	989.00
420.22	1031.12
420.35	1084.38
420.48	991.12
420.61	936.38
420.74	902.12
420.87	993.88
421.00	915.88
421.14	937.00
421.27	1000.88
421.40	1035.75
421.53	972.00
421.66	944.38
421.79	957.50
421.93	961.50
422.06	952.75
422.19	930.88
422.32	1008.00
422.45	1017.50
422.58	966.88
422.71	940.88
422.85	1018.50
422.98	1008.88
423.11	918.88
423.24	897.00
423.37	932.88
423.50	943.00
423.63	960.75
423.77	933.38
423.90	941.50
424.03	991.88
424.16	991.50
424.29	957.00
424.42	918.38
424.55	937.75
424.69	924.88
424.82	959.00
424.95	986.25
425.08	943.12
425.21	988.38
425.34	941.00
425.47	979.00
425.60	995.00
425.74	912.75
425.87	961.88
426.00	977.50
426.13	988.88
426.26	936.75
426.39	936.25
426.52	964.38
426.66	1048.38
426.79	999.25
426.92	941.12
427.05	1079.62
427.18	1047.25
427.31	969.25
427.44	965.12
427.57	951.00
427.71	985.38
427.84	942.88
427.97	980.25
428.10	1050.50
428.23	1004.50
428.36	966.25
428.49	897.88
428.62	1127.38
428.76	1092.75
428.89	1003.50
429.02	940.88
429.15	983.88
429.28	1094.50
429.41	959.75
429.54	974.00
429.67	978.62
429.81	1026.00
429.94	986.00
430.07	965.25
430.20	1037.50
430.33	1070.88
430.46	954.88
430.59	953.50
430.72	996.75
430.85	947.38
430.99	991.50
431.12	957.25
431.25	1049.50
431.38	1081.25
431.51	999.38
431.64	992.62
431.77	1088.00
431.90	1084.12
432.03	998.75
432.17	965.38
432.30	1018.25
432.43	1032.38
432.56	997.00
432.69	1014.62
432.82	1023.75
432.95	1062.38
433.08	1003.75
433.21	1014.00
433.35	1010.38
433.48	1009.88
433.61	972.00
433.74	996.75
433.87	986.00
434.00	1045.25
434.13	983.62
434.26	1029.25
434.39	1039.50
434.53	1052.12
434.66	1008.25
434.79	1000.62
434.92	1000.50
435.05	1087.75
435.18	988.50
435.31	1031.38
435.44	1085.12
435.57	1037.25
435.70	1012.62
435.84	981.88
435.97	1099.62
436.10	1129.12
436.23	999.75
436.36	984.50
436.49	1013.00
436.62	1045.25
436.75	1003.88
436.88	1047.00
437.01	997.75
437.14	995.00
437.28	976.75
437.41	1004.75
437.54	1097.25
437.67	1066.88
437.80	1001.00
437.93	976.75
438.06	1163.88
438.19	1088.25
438.32	988.00
438.45	991.88
438.58	1056.12
438.72	1118.38
438.85	1075.88
438.98	1023.62
439.11	1063.50
439.24	1124.62
439.37	1109.75
439.50	1065.75
439.63	1098.62
439.76	1025.38
439.89	1008.62
440.02	1023.38
440.15	1081.88
440.29	1123.25
440.42	1036.25
440.55	1036.50
440.68	1133.88
440.81	1184.62
440.94	1060.38
441.07	1042.00
441.20	1158.62
441.33	1077.75
441.46	1035.50
441.59	1021.38
441.72	1055.62
441.85	1070.12
441.99	1088.25
442.12	1085.88
442.25	1156.38
442.38	1093.50
442.51	1082.62
442.64	1012.25
442.77	1071.88
442.90	1048.88
443.03	1015.00
443.16	1037.25
443.29	1071.75
443.42	1140.00
443.55	1054.25
443.68	1069.00
443.82	1020.25
443.95	1054.00
444.08	1048.38
444.21	1056.88
444.34	1044.00
444.47	1075.88
444.60	1069.62
444.73	1082.38
444.86	1083.38
444.99	1151.12
445.12	1097.75
445.25	1085.50
445.38	1094.00
445.51	1124.50
445.64	1086.62
445.78	1055.88
445.91	1027.88
446.04	1210.38
446.17	1125.62
446.30	1027.75
446.43	1108.12
446.56	1101.88
446.69	1060.88
446.82	1064.50
446.95	1147.62
447.08	1153.38
447.21	1100.00
447.34	1070.50
447.47	1145.88
447.60	1147.12
447.73	1103.00
447.86	1126.25
447.99	1107.25
448.13	1124.00
448.26	1141.12
448.39	1093.12
448.52	1143.50
448.65	1153.62
448.78	1099.75
448.91	1097.25
449.04	1146.25
449.17	1094.38
449.30	1129.62
449.43	1117.00
449.56	1120.75
449.69	1185.75
449.82	1110.88
449.95	1055.12
450.08	1184.88
450.21	1168.00
450.34	1118.50
450.47	1115.38
450.60	1165.25
450.73	1141.00
450.87	1108.12
451.00	1139.12
451.13	1169.75
451.26	1297.12
451.39	1113.00
451.52	1156.12
451.65	1132.38
451.78	1122.12
451.91	1115.25
452.04	1107.12
452.17	1236.25
452.30	1230.12
452.43	1124.25
452.56	1124.00
452.69	1200.88
452.82	1117.88
452.95	1178.75
453.08	1113.50
453.21	1077.50
453.34	1202.00
453.47	1132.00
453.60	1198.75
453.73	1260.50
453.86	1196.75
453.99	1174.12
454.12	1165.75
454.25	1158.12
454.38	1182.38
454.52	1125.88
454.65	1147.12
454.78	1153.00
454.91	1120.75
455.04	1145.25
455.17	1132.50
455.30	1157.00
455.43	1246.25
455.56	1164.62
455.69	1131.12
455.82	1209.12
455.95	1199.00
456.08	1135.50
456.21	1135.50
456.34	1134.62
456.47	1129.50
456.60	1163.00
456.73	1159.88
456.86	1186.25
456.99	1218.50
457.12	1164.62
457.25	1188.75
457.38	1262.12
457.51	1247.88
457.64	1218.25
457.77	1172.88
457.90	1200.62
458.03	1193.38
458.16	1197.00
458.29	1195.00
458.42	1199.25
458.55	1166.50
458.68	1176.75
458.81	1206.88
458.94	1290.38
459.07	1331.62
459.20	1183.88
459.33	1200.75
459.46	1294.12
459.59	1335.12
459.72	1297.50
459.85	1219.62
459.98	1314.25
460.11	1276.25
460.24	1233.25
460.37	1197.12
460.50	1285.25
460.63	1263.88
460.76	1232.50
460.89	1247.88
461.02	1289.38
461.15	1291.62
461.28	1246.38
461.41	1239.75
461.54	1343.75
461.67	1235.50
461.80	1263.00
461.93	1299.62
462.06	1306.00
462.19	1340.12
462.32	1262.25
462.45	1247.00
462.58	1312.88
462.71	1262.88
462.84	1264.88
462.97	1219.62
463.10	1277.00
463.23	1299.88
463.36	1312.50
463.49	1298.25
463.62	1248.12
463.75	1320.38
463.88	1273.75
464.01	1298.00
464.14	1260.12
464.27	1411.62
464.40	1295.62
464.53	1295.88
464.66	1345.38
464.79	1340.00
464.92	1321.62
465.05	1287.12
465.18	1325.25
465.31	1327.75
465.44	1310.88
465.57	1301.12
465.70	1311.62
465.83	1460.75
465.96	1348.62
466.09	1321.50
466.22	1402.88
466.35	1381.88
466.48	1316.50
466.61	1328.12
466.74	1354.88
466.87	1421.25
467.00	1388.50
467.13	1379.00
467.26	1411.38
467.39	1332.25
467.52	1330.38
467.65	1364.38
467.78	1458.12
467.91	1390.75
468.04	1390.50
468.17	1361.12
468.30	1389.50
468.43	1357.12
468.56	1381.12
468.69	1413.00
468.82	1427.88
468.95	1374.00
469.08	1392.25
469.21	1408.00
469.34	1458.75
469.47	1545.12
469.60	1511.62
469.73	1438.38
469.86	1453.75
469.99	1497.88
470.11	1403.75
470.24	1434.88
470.37	1501.62
470.50	1468.50
470.63	1433.88
470.76	1453.62
470.89	1521.88
471.02	1595.62
471.15	1457.62
471.28	1468.50
471.41	1590.38
471.54	1518.62
471.67	1477.88
471.80	1429.25
471.93	1561.50
472.06	1536.00
472.19	1505.38
472.32	1485.88
472.45	1645.62
472.58	1590.00
472.71	1540.62
472.84	1521.50
472.97	1524.38
473.10	1499.12
473.23	1592.75
473.36	1505.25
473.49	1628.25
473.62	1615.00
473.74	1591.88
473.87	1608.50
474.00	1556.50
474.13	1553.62
474.26	1589.88
474.39	1623.88
474.52	1600.12
474.65	1605.12
474.78	1621.75
474.91	1569.00
475.04	1644.50
475.17	1754.88
475.30	1658.62
475.43	1657.50
475.56	1698.38
475.69	1647.38
475.82	1678.88
475.95	1627.38
476.08	1744.50
476.21	1680.00
476.34	1703.88
476.46	1707.00
476.59	1769.88
476.72	1697.50
476.85	1686.50
476.98	1675.12
477.11	1773.00
477.24	1718.25
477.37	1662.12
477.50	1700.62
477.63	1741.12
477.76	1727.62
477.89	1671.62
478.02	1690.38
478.15	1761.88
478.28	1746.38
478.41	1784.75
478.54	1750.00
478.66	1829.38
478.79	1769.75
478.92	1781.38
479.05	1800.88
479.18	1810.00
479.31	1777.88
479.44	1790.62
479.57	1783.12
479.70	1815.62
479.83	1856.00
479.96	1821.75
480.09	1864.12
480.22	1986.75
480.35	1960.88
480.48	1897.12
480.60	1869.00
480.73	1856.62
480.86	1914.38
480.99	1878.25
481.12	1881.88
481.25	1898.88
481.38	1964.88
481.51	1886.38
481.64	1914.88
481.77	1946.12
481.90	1911.50
482.03	1929.75
482.16	1921.88
482.29	2016.50
482.41	1957.62
482.54	1975.25
482.67	1936.12
482.80	1971.88
482.93	2035.12
483.06	1950.75
483.19	2032.00
483.32	2019.62
483.45	1990.50
483.58	2013.38
483.71	2032.50
483.84	2069.00
483.97	2060.25
484.09	2014.88
484.22	2019.50
484.35	2016.38
484.48	1988.75
484.61	2033.50
484.74	2048.25
484.87	2086.38
485.00	2043.00
485.13	2078.50
485.26	2046.00
485.39	2136.00
485.52	2088.25
485.64	2173.25
485.77	2125.38
485.90	2176.62
486.03	2077.75
486.16	2125.00
486.29	2089.75
486.42	2132.25
486.55	2159.62
486.68	2140.12
486.81	2183.38
486.94	2172.50
487.06	2151.12
487.19	2185.25
487.32	2204.12
487.45	2207.88
487.58	2159.12
487.71	2194.00
487.84	2151.75
487.97	2235.75
488.10	2269.62
488.23	2202.38
488.35	2170.00
488.48	2222.12
488.61	2193.25
488.74	2225.75
488.87	2228.25
489.00	2264.12
489.13	2357.00
489.26	2284.88
489.39	2305.75
489.52	2328.38
489.64	2315.12
489.77	2295.75
489.90	2284.75
490.03	2300.00
490.16	2293.12
490.29	2306.75
490.42	2290.50
490.55	2340.25
490.68	2309.00
490.81	2312.88
490.93	2282.38
491.06	2407.38
491.19	2383.00
491.32	2368.25
491.45	2384.88
491.58	2329.38
491.71	2380.12
491.84	2356.62
491.97	2367.50
492.09	2457.50
492.22	2415.00
492.35	2408.50
492.48	2434.12
492.61	2424.75
492.74	2413.75
492.87	2429.50
493.00	2426.12
493.12	2399.25
493.25	2446.88
493.38	2426.75
493.51	2412.62
493.64	2414.12
493.77	2468.12
493.90	2485.38
494.03	2488.12
494.16	2546.38
494.28	2533.50
494.41	2468.88
494.54	2508.75
494.67	2609.75
494.80	2581.88
494.93	2519.25
495.06	2533.50
495.19	2546.38
495.31	2541.12
495.44	2516.25
495.57	2496.75
495.70	2564.25
495.83	2544.25
495.96	2516.75
496.09	2568.12
496.22	2642.75
496.34	2670.50
496.47	2567.00
496.60	2604.38
496.73	2634.25
496.86	2634.62
496.99	2565.50
497.12	2607.88
497.24	2564.62
497.37	2628.25
497.50	2607.62
497.63	2597.75
497.76	2627.12
497.89	2707.00
498.02	2659.00
498.15	2567.38
498.27	2652.88
498.40	2712.88
498.53	2734.75
498.66	2682.62
498.79	2719.12
498.92	2630.00
499.05	2692.25
499.17	2692.00
499.30	2728.00
499.43	2794.12
499.56	2730.25
499.69	2659.00
499.82	2733.25
499.95	2705.00
500.07	2684.75
500.20	2730.25
500.33	2776.88
500.46	2893.25
500.59	2751.25
500.72	2763.38
500.85	2811.50
500.97	2819.88
501.10	2816.62
501.23	2735.25
501.36	2792.12
501.49	2864.25
501.62	2820.25
501.75	2811.50
501.87	2864.25
502.00	2756.25
502.13	2834.75
502.26	2832.62
502.39	2793.38
502.52	2812.75
502.64	2783.62
502.77	2808.00
502.90	2890.25
503.03	2863.62
503.16	2834.50
503.29	2831.25
503.42	2939.62
503.54	2885.88
503.67	2874.00
503.80	2892.75
503.93	2945.38
504.06	2845.12
504.19	2875.62
504.31	2949.88
504.44	2931.50
504.57	2941.25
504.70	2923.00
504.83	2880.88
504.96	2954.75
505.08	2927.75
505.21	2937.62
505.34	3065.12
505.47	3015.62
505.60	2997.88
505.73	3038.00
505.85	3019.12
505.98	3115.75
506.11	2993.25
506.24	2960.25
506.37	2948.88
506.50	3007.12
506.62	3056.88
506.75	3003.00
506.88	2994.00
507.01	3038.75
507.14	2980.12
507.27	3033.00
507.39	3008.38
507.52	3046.38
507.65	3013.62
507.78	3075.75
507.91	3034.50
508.04	3142.62
508.16	3124.88
508.29	3082.75
508.42	3066.50
508.55	3048.38
508.68	3057.62
508.81	3144.62
508.93	3077.12
509.06	3092.00
509.19	3150.00
509.32	3152.62
509.45	3135.25
509.57	3169.25
509.70	3122.50
509.83	3144.00
509.96	3113.50
510.09	3152.25
510.22	3150.00
510.34	3176.00
510.47	3147.50
510.60	3278.25
510.73	3186.75
510.86	3208.75
510.98	3177.25
511.11	3165.88
511.24	3263.38
511.37	3223.38
511.50	3186.25
511.63	3233.00
511.75	3235.00
511.88	3208.75
512.01	3245.38
512.14	3232.75
512.27	3253.12
512.39	3237.38
512.52	3237.38
512.65	3268.88
512.78	3224.50
512.91	3260.50
513.03	3276.38
513.16	3326.12
513.29	3279.12
513.42	3273.00
513.55	3248.62
513.67	3332.50
513.80	3253.50
513.93	3285.00
514.06	3308.50
514.19	3332.75
514.31	3329.12
514.44	3375.38
514.57	3310.00
514.70	3355.62
514.83	3409.50
514.95	3317.12
515.08	3354.12
515.21	3400.50
515.34	3394.38
515.47	3375.50
515.59	3343.62
515.72	3415.25
515.85	3411.38
515.98	3454.88
516.11	3406.00
516.23	3461.88
516.36	3472.00
516.49	3431.25
516.62	3421.88
516.75	3494.50
516.87	3507.12
517.00	3398.88
517.13	3460.12
517.26	3515.00
517.39	3482.75
517.51	3387.38
517.64	3465.25
517.77	3555.00
517.90	3453.50
518.02	3472.75
518.15	3443.12
518.28	3403.88
518.41	3487.12
518.54	3487.12
518.66	3526.75
518.79	3460.75
518.92	3489.38
519.05	3498.12
519.18	3503.12
519.30	3544.62
519.43	3489.62
519.56	3518.88
519.69	3538.25
519.81	3586.00
519.94	3539.62
520.07	3488.00
520.20	3537.00
520.33	3595.62
520.45	3636.50
520.58	3585.88
520.71	3608.25
520.84	3617.38
520.96	3611.38
521.09	3605.75
521.22	3569.62
521.35	3648.88
521.48	3647.75
521.60	3605.75
521.73	3639.88
521.86	3684.25
521.99	3723.62
522.11	3638.75
522.24	3624.62
522.37	3659.38
522.50	3666.38
522.62	3716.25
522.75	3608.25
522.88	3673.75
523.01	3645.75
523.14	3678.88
523.26	3699.00
523.39	3756.12
523.52	3665.75
523.65	3793.62
523.77	3715.88
523.90	3717.50
524.03	3691.75
524.16	3695.62
524.28	3693.88
524.41	3698.38
524.54	3705.75
524.67	3669.62
524.79	3729.12
524.92	3759.88
525.05	3817.88
525.18	3731.50
525.31	3796.62
525.43	3708.38
525.56	3867.88
525.69	3754.25
525.82	3692.12
525.94	3821.88
526.07	3823.62
526.20	3828.88
526.33	3824.38
526.45	3925.12
526.58	3870.38
526.71	3816.12
526.84	3795.12
526.96	3817.50
527.09	3794.62
527.22	3782.25
527.35	3811.75
527.47	3782.88
527.60	3899.50
527.73	3793.38
527.86	3855.00
527.98	3858.75
528.11	3868.00
528.24	3833.38
528.37	3844.38
528.49	3817.88
528.62	3873.12
528.75	3892.38
528.88	3839.75
529.00	3900.88
529.13	3932.88
529.26	3880.12
529.39	3932.88
529.51	4041.38
529.64	3989.62
529.77	3878.00
529.90	3883.75
530.02	3904.62
530.15	3894.25
530.28	3859.12
530.40	3897.25
530.53	3938.00
530.66	3964.00
530.79	3939.75
530.91	3945.38
531.04	3930.38
531.17	3942.75
531.30	3962.75
531.42	3962.00
531.55	3975.00
531.68	4044.75
531.81	3948.75
531.93	3945.88
532.06	4003.00
532.19	3939.12
532.31	3961.12
532.44	3983.25
532.57	4029.88
532.70	3973.25
532.82	4011.62
532.95	4021.12
533.08	4071.62
533.21	4072.62
533.33	4002.88
533.46	3992.38
533.59	4013.75
533.71	4146.00
533.84	4040.88
533.97	4012.25
534.10	4032.12
534.22	4045.50
534.35	4066.00
534.48	4054.00
534.61	4100.75
534.73	4015.38
534.86	4028.88
534.99	4088.50
535.11	4142.88
535.24	4112.50
535.37	4072.12
535.50	4063.88
535.62	4072.00
535.75	4177.00
535.88	4088.62
536.00	4087.00
536.13	4107.62
536.26	4136.50
536.39	4111.00
536.51	4081.62
536.64	4175.25
536.77	4143.00
536.89	4129.38
537.02	4178.75
537.15	4201.88
537.28	4166.50
537.40	4164.00
537.53	4153.62
537.66	4214.25
537.78	4190.75
537.91	4152.00
538.04	4161.38
538.17	4236.50
538.29	4208.75
538.42	4278.75
538.55	4249.00
538.67	4252.50
538.80	4197.88
538.93	4229.25
539.05	4221.00
539.18	4308.38
539.31	4282.00
539.44	4235.88
539.56	4176.62
539.69	4236.38
539.82	4214.50
539.94	4232.75
540.07	4225.38
540.20	4338.88
540.32	4245.75
540.45	4267.25
540.58	4260.25
540.71	4322.50
540.83	4225.00
540.96	4259.75
541.09	4271.38
541.21	4384.25
541.34	4373.38
541.47	4261.88
541.59	4327.75
541.72	4406.75
541.85	4480.00
541.98	4378.38
542.10	4332.00
542.23	4349.25
542.36	4453.12
542.48	4342.50
542.61	4350.38
542.74	4316.12
542.86	4336.75
542.99	4347.38
543.12	4335.38
543.24	4371.25
543.37	4317.38
543.50	4364.00
543.62	4344.62
543.75	4374.88
543.88	4372.38
544.01	4396.50
544.13	4428.38
544.26	4448.00
544.39	4369.25
544.51	4382.25
544.64	4369.12
544.77	4429.88
544.89	4391.62
545.02	4425.38
545.15	4403.00
545.27	4527.75
545.40	4514.75
545.53	4475.12
545.65	4463.12
545.78	4380.62
545.91	4419.38
546.03	4437.12
546.16	4456.88
546.29	4459.12
546.41	4446.75
546.54	4465.50
546.67	4445.62
546.79	4531.12
546.92	4570.75
547.05	4440.75
547.17	4486.50
547.30	4478.50
547.43	4530.38
547.56	4474.12
547.68	4491.88
547.81	4472.62
547.94	4521.62
548.06	4507.38
548.19	4484.88
548.32	4596.50
548.44	4523.75
548.57	4549.75
548.70	4580.62
548.82	4586.50
548.95	4572.38
549.08	4560.88
549.20	4549.00
549.33	4644.50
549.45	4570.75
549.58	4558.62
549.71	4509.12
549.83	4618.88
549.96	4529.62
550.09	4572.00
550.21	4545.12
550.34	4602.38
550.47	4565.12
550.59	4583.62
550.72	4529.38
550.85	4602.50
550.97	4672.00
551.10	4598.88
551.23	4608.75
551.35	4714.50
551.48	4650.88
551.61	4612.00
551.73	4632.25
551.86	4752.38
551.99	4713.00
552.11	4666.62
552.24	4682.00
552.37	4686.12
552.49	4646.50
552.62	4668.25
552.75	4705.38
552.87	4664.25
553.00	4675.38
553.12	4688.38
553.25	4667.62
553.38	4726.50
553.50	4752.62
553.63	4714.38
553.76	4657.25
553.88	4725.38
554.01	4712.88
554.14	4726.38
554.26	4758.62
554.39	4820.62
554.52	4755.00
554.64	4736.12
554.77	4758.75
554.89	4804.50
555.02	4816.88
555.15	4768.75
555.27	4747.88
555.40	4786.38
555.53	4868.50
555.65	4769.62
555.78	4755.25
555.91	4811.38
556.03	4893.12
556.16	4786.25
556.29	4797.25
556.41	4875.88
556.54	4903.25
556.66	4828.88
556.79	4792.25
556.92	4834.75
557.04	4878.50
557.17	4830.50
557.30	4832.25
557.42	4846.75
557.55	4848.12
557.67	4871.75
557.80	4848.25
557.93	4898.00
558.05	4898.00
558.18	4842.00
558.31	4875.00
558.43	4942.12
558.56	4925.50
558.68	4919.62
558.81	4869.50
558.94	4932.12
559.06	5022.75
559.19	4912.38
559.32	4914.75
559.44	4893.62
559.57	4927.38
559.69	4918.38
559.82	4931.38
559.95	4959.62
560.07	4941.25
560.20	4874.12
560.33	4955.25
560.45	4966.38
560.58	4942.12
560.70	4986.12
560.83	4939.12
560.96	4988.75
561.08	4987.88
561.21	5015.75
561.33	4973.88
561.46	4951.62
561.59	5086.00
561.71	4996.00
561.84	5009.12
561.97	5008.88
562.09	5080.62
562.22	5016.38
562.34	5014.50
562.47	5074.12
562.60	5078.12
562.72	5039.75
562.85	5070.00
562.97	5064.25
563.10	5059.88
563.23	5048.38
563.35	5039.75
563.48	5098.25
563.60	5099.25
563.73	5106.12
563.86	5058.38
563.98	5082.12
564.11	5094.38
564.23	5087.25
564.36	5169.38
564.49	5122.38
564.61	5179.12
564.74	5135.75
564.86	5101.38
564.99	5179.50
565.12	5192.88
565.24	5224.00
565.37	5188.38
565.49	5220.38
565.62	5226.00
565.75	5209.38
565.87	5132.50
566.00	5318.50
566.12	5245.25
566.25	5168.12
566.38	5207.62
566.50	5198.25
566.63	5237.38
566.75	5195.62
566.88	5160.12
567.01	5166.12
567.13	5192.38
567.26	5190.50
567.38	5165.88
567.51	5256.50
567.64	5186.50
567.76	5249.12
567.89	5217.00
568.01	5205.62
568.14	5196.50
568.26	5230.88
568.39	5210.50
568.52	5241.12
568.64	5274.00
568.77	5216.50
568.89	5216.38
569.02	5239.75
569.15	5212.38
569.27	5221.00
569.40	5262.50
569.52	5291.12
569.65	5256.12
569.77	5232.62
569.90	5215.62
570.03	5204.75
570.15	5320.38
570.28	5254.00
570.40	5277.50
570.53	5269.50
570.66	5330.00
570.78	5326.75
570.91	5272.25
571.03	5261.75
571.16	5304.00
571.28	5232.50
571.41	5226.50
571.54	5249.75
571.66	5195.62
571.79	5265.62
571.91	5265.38
572.04	5248.38
572.16	5289.00
572.29	5309.50
572.42	5254.88
572.54	5307.00
572.67	5272.12
572.79	5324.12
572.92	5301.38
573.04	5339.88
573.17	5355.12
573.29	5304.75
573.42	5295.75
573.55	5367.12
573.67	5329.88
573.80	5308.00
573.92	5261.88
574.05	5300.62
574.17	5389.12
574.30	5327.88
574.43	5321.62
574.55	5307.38
574.68	5339.62
574.80	5315.25
574.93	5280.88
575.05	5274.88
575.18	5297.38
575.30	5337.50
575.43	5368.25
575.56	5390.75
575.68	5349.12
575.81	5314.00
575.93	5283.38
576.06	5359.00
576.18	5373.25
576.31	5343.75
576.43	5334.12
576.56	5433.62
576.69	5387.62
576.81	5363.50
576.94	5338.25
577.06	5368.62
577.19	5392.12
577.31	5348.75
577.44	5375.50
577.56	5408.62
577.69	5371.25
577.82	5384.12
577.94	5335.00
578.07	5302.62
578.19	5390.12
578.32	5380.75
578.44	5346.25
578.57	5344.50
578.69	5408.62
578.82	5372.50
578.94	5421.50
579.07	5437.00
579.19	5419.38
579.32	5383.50
579.45	5378.62
579.57	5378.00
579.70	5385.62
579.82	5403.25
579.95	5375.75
580.07	5451.12
580.20	5379.12
580.32	5391.00
580.45	5401.38
580.57	5423.50
580.70	5377.25
580.82	5414.38
580.95	5435.62
581.08	5327.25
581.20	5466.38
581.33	5390.25
581.45	5397.88
581.58	5409.25
581.70	5443.75
581.83	5336.00
581.95	5395.50
582.08	5438.62
582.20	5403.75
582.33	5391.12
582.45	5372.62
582.58	5398.38
582.70	5422.00
582.83	5408.50
582.95	5400.75
583.08	5470.25
583.21	5463.25
583.33	5441.38
583.46	5394.75
583.58	5379.38
583.71	5429.50
583.83	5451.00
583.96	5429.38
584.08	5484.38
584.21	5459.00
584.33	5445.75
584.46	5398.25
584.58	5387.75
584.71	5463.38
584.83	5480.88
584.96	5434.25
585.08	5429.38
585.21	5522.50
585.33	5501.00
585.46	5464.12
585.58	5487.00
585.71	5412.25
585.83	5438.50
585.96	5478.62
586.08	5461.75
586.21	5493.50
586.33	5487.25
586.46	5388.12
586.59	5508.00
586.71	5426.25
586.84	5467.00
586.96	5451.25
587.09	5386.88
587.21	5410.75
587.34	5486.12
587.46	5432.50
587.59	5399.62
587.71	5450.50
587.84	5424.38
587.96	5433.62
588.09	5400.50
588.21	5472.12
588.34	5451.25
588.46	5458.38
588.59	5460.50
588.71	5487.00
588.84	5471.38
588.96	5477.25
589.09	5550.12
589.21	5506.75
589.34	5433.25
589.46	5483.75
589.59	5469.50
589.71	5510.62
589.84	5417.38
589.96	5431.38
590.09	5475.38
590.21	5517.25
590.34	5506.88
590.46	5475.12
590.59	5434.62
590.71	5470.50
590.84	5501.25
590.96	5453.00
591.09	5504.75
591.21	5495.88
591.34	5480.00
591.46	5441.12
591.59	5559.50
591.71	5523.00
591.83	5500.88
591.96	5418.38
592.08	5487.25
592.21	5529.25
592.33	5508.75
592.46	5482.50
592.58	5524.75
592.71	5571.00
592.83	5578.00
592.96	5512.12
593.08	5547.88
593.21	5463.50
593.33	5455.00
593.46	5494.88
593.58	5492.62
593.71	5539.62
593.83	5552.75
593.96	5440.25
594.08	5620.62
594.21	5535.50
594.33	5488.50
594.46	5493.75
594.58	5449.25
594.71	5424.38
594.83	5499.25
594.96	5487.88
595.08	5681.50
595.20	5566.62
595.33	5553.62
595.45	5482.00
595.58	5621.00
595.70	5554.62
595.83	5500.50
595.95	5505.50
596.08	5514.12
596.20	5470.00
596.33	5479.25
596.45	5485.62
596.58	5498.88
596.70	5487.50
596.83	5491.88
596.95	5476.38
597.08	5527.75
597.20	5485.25
597.32	5507.12
597.45	5536.00
597.57	5534.50
597.70	5552.38
597.82	5539.25
597.95	5559.25
598.07	5524.62
598.20	5566.12
598.32	5525.62
598.45	5539.25
598.57	5584.25
598.70	5596.88
598.82	5559.25
598.94	5532.12
599.07	5565.12
599.19	5556.25
599.32	5519.75
599.44	5434.50
599.57	5589.00
599.69	5556.75
599.82	5548.75
599.94	5508.62
600.07	5594.50
600.19	5541.75
600.31	5497.62
600.44	5586.75
600.56	5656.88
600.69	5623.00
600.81	5555.00
600.94	5541.62
601.06	5561.38
601.19	5577.00
601.31	5578.25
601.44	5489.88
601.56	5617.38
601.68	5605.00
601.81	5581.88
601.93	5550.88
602.06	5578.88
602.18	5525.38
602.31	5532.00
602.43	5608.62
602.56	5601.88
602.68	5571.75
602.80	5563.12
602.93	5550.25
603.05	5525.12
603.18	5576.62
603.30	5510.25
603.43	5518.00
603.55	5549.75
603.68	5601.50
603.80	5568.25
603.92	5569.00
604.05	5558.00
604.17	5547.00
604.30	5536.25
604.42	5523.12
604.55	5565.12
604.67	5593.50
604.79	5553.75
604.92	5549.25
605.04	5560.38
605.17	5559.38
605.29	5557.88
605.42	5536.88
605.54	5638.25
605.66	5565.62
605.79	5605.38
605.91	5570.12
606.04	5570.88
606.16	5522.00
606.29	5553.00
606.41	5550.25
606.53	5558.38
606.66	5513.75
606.78	5568.12
606.91	5538.12
607.03	5567.00
607.16	5563.50
607.28	5551.50
607.40	5573.25
607.53	5611.75
607.65	5552.88
607.78	5569.88
607.90	5571.88
608.03	5708.25
608.15	5597.62
608.27	5612.25
608.40	5561.00
608.52	5600.00
608.65	5590.75
608.77	5610.38
608.89	5560.50
609.02	5691.38
609.14	5676.00
609.27	5607.25
609.39	5617.00
609.52	5554.00
609.64	5519.62
609.76	5595.50
609.89	5577.00
610.01	5636.25
610.14	5620.12
610.26	5579.25
610.38	5568.62
610.51	5622.50
610.63	5593.50
610.76	5556.62
610.88	5596.12
611.01	5638.38
611.13	5694.50
611.25	5634.00
611.38	5549.75
611.50	5593.75
611.63	5606.12
611.75	5605.50
611.87	5625.62
612.00	5591.00
612.12	5656.62
612.25	5608.38
612.37	5568.12
612.49	5651.12
612.62	5632.00
612.74	5666.88
612.87	5585.88
612.99	5597.75
613.11	5536.38
613.24	5576.25
613.36	5601.38
613.49	5619.38
613.61	5595.88
613.73	5571.75
613.86	5610.88
613.98	5561.50
614.11	5650.38
614.23	5656.25
614.35	5629.75
614.48	5661.38
614.60	5613.88
614.72	5578.25
614.85	5599.00
614.97	5620.88
615.10	5641.38
615.22	5593.62
615.34	5640.62
615.47	5660.62
615.59	5588.75
615.72	5608.38
615.84	5610.50
615.96	5588.75
616.09	5703.50
616.21	5613.12
616.34	5570.50
616.46	5610.75
616.58	5617.75
616.71	5628.12
616.83	5625.12
616.95	5611.12
617.08	5645.75
617.20	5606.88
617.33	5579.12
617.45	5603.62
617.57	5622.75
617.70	5600.12
617.82	5582.62
617.95	5620.38
618.07	5670.88
618.19	5609.50
618.32	5609.38
618.44	5589.25
618.56	5560.38
618.69	5557.00
618.81	5553.88
618.94	5658.75
619.06	5579.38
619.18	5619.38
619.31	5540.25
619.43	5552.00
619.55	5609.00
619.68	5608.25
619.80	5554.38
619.92	5628.38
620.05	5735.38
620.17	5664.00
620.30	5576.00
620.42	5599.25
620.54	5643.12
620.67	5582.50
620.79	5609.00
620.91	5608.50
621.04	5639.88
621.16	5581.38
621.29	5562.62
621.41	5516.50
621.53	5576.50
621.66	5598.50
621.78	5569.75
621.90	5652.50
622.03	5682.12
622.15	5571.88
622.27	5574.75
622.40	5594.50
622.52	5551.25
622.64	5563.38
622.77	5508.12
622.89	5597.25
623.02	5634.50
623.14	5611.75
623.26	5598.75
623.39	5606.12
623.51	5654.50
623.63	5580.25
623.76	5545.25
623.88	5666.25
624.00	5584.62
624.13	5538.50
624.25	5551.75
624.37	5523.88
624.50	5604.75
624.62	5612.50
624.75	5529.62
624.87	5510.75
624.99	5607.12
625.12	5560.00
625.24	5529.38
625.36	5663.38
625.49	5595.25
625.61	5570.62
625.73	5570.38
625.86	5612.25
625.98	5559.12
626.10	5544.12
626.23	5490.38
626.35	5593.12
626.47	5544.75
626.60	5547.38
626.72	5522.50
626.84	5555.38
626.97	5586.75
627.09	5539.00
627.21	5556.62
627.34	5672.75
627.46	5655.75
627.58	5540.88
627.71	5552.62
627.83	5629.50
627.95	5517.00
628.08	5565.75
628.20	5565.25
628.32	5491.88
628.45	5478.62
628.57	5477.62
628.69	5501.62
628.82	5564.62
628.94	5581.88
629.06	5525.12
629.19	5534.25
629.31	5577.50
629.43	5493.00
629.56	5544.75
629.68	5519.88
629.80	5572.00
629.93	5495.25
630.05	5504.75
630.17	5502.62
630.30	5538.50
630.42	5502.88
630.54	5553.00
630.67	5520.38
630.79	5501.25
630.91	5653.25
631.04	5539.75
631.16	5548.50
631.28	5528.75
631.41	5490.00
631.53	5474.00
631.65	5507.25
631.78	5539.38
631.90	5497.75
632.02	5492.62
632.14	5397.12
632.27	5579.88
632.39	5508.38
632.51	5483.62
632.64	5553.38
632.76	5501.38
632.88	5473.62
633.01	5500.50
633.13	5486.75
633.25	5524.75
633.38	5627.88
633.50	5446.00
633.62	5442.00
633.75	5420.12
633.87	5402.75
633.99	5495.88
634.11	5434.00
634.24	5466.25
634.36	5498.62
634.48	5470.00
634.61	5454.38
634.73	5527.25
634.85	5435.00
634.98	5442.75
635.10	5474.75
635.22	5461.62
635.35	5588.38
635.47	5489.88
635.59	5472.25
635.71	5499.75
635.84	5533.38
635.96	5473.00
636.08	5510.75
636.21	5458.38
636.33	5488.50
636.45	5479.38
636.58	5435.62
636.70	5412.75
636.82	5507.12
636.94	5451.38
637.07	5399.12
637.19	5495.50
637.31	5485.00
637.44	5491.50
637.56	5409.50
637.68	5491.62
637.81	5474.75
637.93	5462.50
638.05	5424.12
638.17	5507.75
638.30	5553.75
638.42	5453.62
638.54	5420.75
638.67	5448.75
638.79	5473.00
638.91	5437.75
639.03	5408.75
639.16	5424.38
639.28	5438.50
639.40	5449.88
639.53	5423.38
639.65	5481.50
639.77	5427.25
639.89	5447.38
640.02	5444.25
640.14	5465.00
640.26	5390.50
640.39	5458.50
640.51	5400.12
640.63	5446.25
640.75	5487.75
640.88	5425.12
641.00	5395.00
641.12	5396.12
641.24	5501.12
641.37	5393.62
641.49	5362.12
641.61	5525.62
641.74	5396.62
641.86	5450.12
641.98	5389.75
642.10	5441.12
642.23	5453.75
642.35	5398.62
642.47	5405.00
642.60	5429.62
642.72	5451.62
642.84	5362.12
642.96	5343.62
643.09	5371.38
643.21	5381.75
643.33	5366.00
643.45	5393.00
643.58	5449.88
643.70	5463.12
643.82	5387.38
643.94	5388.62
644.07	5394.62
644.19	5398.62
644.31	5411.88
644.44	5417.38
644.56	5380.75
644.68	5371.25
644.80	5365.50
644.93	5354.50
645.05	5367.50
645.17	5414.50
645.29	5410.50
645.42	5378.12
645.54	5375.12
645.66	5426.62
645.78	5368.50
645.91	5343.25
646.03	5385.75
646.15	5469.88
646.27	5364.62
646.40	5409.50
646.52	5415.38
646.64	5422.62
646.76	5375.12
646.89	5337.12
647.01	5413.75
647.13	5412.62
647.25	5437.38
647.38	5364.62
647.50	5351.38
647.62	5441.00
647.74	5323.50
647.87	5304.88
647.99	5383.38
648.11	5401.88
648.23	5342.38
648.36	5313.75
648.48	5408.00
648.60	5365.00
648.72	5342.88
648.85	5288.25
648.97	5396.00
649.09	5366.25
649.21	5326.62
649.34	5360.25
649.46	5388.62
649.58	5380.38
649.70	5353.75
649.83	5322.75
649.95	5379.12
650.07	5385.75
650.19	5385.38
650.32	5355.38
650.44	5412.50
650.56	5377.75
650.68	5345.62
650.81	5319.75
650.93	5327.75
651.05	5382.50
651.17	5312.38
651.29	5347.75
651.42	5326.12
651.54	5353.38
651.66	5295.62
651.78	5281.00
651.91	5378.25
652.03	5463.75
652.15	5348.38
652.27	5310.75
652.40	5349.50
652.52	5324.75
652.64	5326.50
652.76	5314.62
652.88	5435.75
653.01	5327.12
653.13	5290.12
653.25	5244.88
653.37	5355.00
653.50	5362.25
653.62	5338.50
653.74	5238.25
653.86	5373.75
653.98	5369.62
654.11	5285.88
654.23	5313.50
654.35	5283.50
654.47	5410.12
654.60	5295.88
654.72	5287.00
654.84	5264.38
654.96	5348.62
655.08	5282.50
655.21	5289.25
655.33	5297.00
655.45	5337.62
655.57	5299.75
655.70	5282.50
655.82	5316.50
655.94	5348.50
656.06	5320.00
656.18	5239.75
656.31	5330.50
656.43	5321.00
656.55	5252.38
656.67	5285.62
656.79	5296.25
656.92	5326.12
657.04	5294.00
657.16	5248.38
657.28	5387.25
657.40	5269.50
657.53	5308.88
657.65	5245.75
657.77	5307.00
657.89	5315.25
658.01	5234.50
658.14	5209.38
658.26	5280.00
658.38	5222.88
658.50	5202.50
658.62	5222.75
658.75	5375.25
658.87	5270.62
658.99	5275.38
659.11	5212.50
659.23	5280.25
659.36	5346.25
659.48	5274.62
659.60	5271.38
659.72	5252.75
659.84	5239.50
659.97	5284.38
660.09	5227.75
660.21	5332.38
660.33	5265.38
660.45	5178.12
660.58	5143.00
660.70	5166.88
660.82	5197.00
660.94	5139.62
661.06	5218.88
661.19	5273.50
661.31	5257.88
661.43	5182.75
661.55	5172.00
661.67	5236.12
661.80	5273.75
661.92	5183.75
662.04	5201.00
662.16	5225.38
662.28	5255.00
662.40	5217.12
662.53	5183.88
662.65	5205.25
662.77	5153.75
662.89	5168.88
663.01	5151.25
663.14	5162.62
663.26	5212.25
663.38	5161.50
663.50	5115.00
663.62	5159.88
663.74	5153.38
663.87	5143.12
663.99	5168.50
664.11	5212.38
664.23	5276.12
664.35	5124.62
664.48	5122.50
664.60	5139.00
664.72	5129.50
664.84	5120.75
664.96	5120.50
665.08	5198.25
665.21	5153.50
665.33	5165.75
665.45	5077.75
665.57	5115.12
665.69	5193.50
665.81	5108.25
665.94	5053.62
666.06	5097.50
666.18	5126.25
666.30	5084.62
666.42	5067.00
666.54	5135.88
666.67	5131.00
666.79	5078.88
666.91	5142.88
667.03	5094.50
667.15	5062.00
667.27	5088.25
667.40	5046.00
667.52	5073.50
667.64	5100.62
667.76	5074.75
667.88	5041.75
668.00	5115.25
668.13	5097.50
668.25	5035.50
668.37	5039.50
668.49	5050.00
668.61	5116.50
668.73	5053.00
668.85	5047.62
668.98	5072.00
669.10	5058.12
669.22	5024.00
669.34	5023.62
669.46	5085.12
669.58	5008.88
669.71	5051.25
669.83	5025.75
669.95	5019.75
670.07	5035.75
670.19	5010.12
670.31	5046.12
670.43	5004.38
670.56	5069.38
670.68	5075.88
670.80	5037.25
670.92	5033.38
671.04	5103.00
671.16	5023.88
671.28	5010.88
671.41	5008.38
671.53	5056.00
671.65	5022.88
671.77	5000.00
671.89	5173.25
672.01	5115.75
672.13	5051.00
672.26	4973.25
672.38	5011.25
672.50	4977.50
672.62	5002.38
672.74	5015.75
672.86	4998.12
672.98	5024.50
673.11	4982.25
673.23	5001.00
673.35	5053.88
673.47	4989.12
673.59	5002.25
673.71	4956.50
673.83	5018.25
673.96	5121.00
674.08	4991.12
674.20	4938.88
674.32	4982.62
674.44	4996.50
674.56	4992.25
674.68	4954.00
674.80	5004.50
674.93	4969.12
675.05	4957.88
675.17	4979.12
675.29	5020.25
675.41	5017.12
675.53	4960.00
675.65	4949.38
675.77	4954.38
675.90	5010.00
676.02	4930.38
676.14	4926.88
676.26	5041.62
676.38	5073.62
676.50	4968.00
676.62	4984.12
676.74	4909.25
676.87	4916.00
676.99	4963.50
677.11	4988.00
677.23	4987.75
677.35	4949.00
677.47	4907.62
677.59	4928.62
677.71	4950.88
677.83	5002.50
677.96	4931.12
678.08	4934.88
678.20	4920.62
678.32	4894.75
678.44	4924.25
678.56	4933.75
678.68	5081.75
678.80	4975.25
678.93	4910.50
679.05	4944.62
679.17	4941.50
679.29	4985.62
679.41	4913.88
679.53	4873.00
679.65	4911.00
679.77	4915.88
679.89	4903.38
680.01	4942.00
680.14	4963.75
680.26	4874.88
680.38	4890.50
680.50	4951.62
680.62	5008.12
680.74	4934.75
680.86	4899.38
680.98	4924.75
681.10	4949.50
681.22	5026.12
681.35	4893.00
681.47	4871.50
681.59	4853.00
681.71	4994.75
681.83	4892.62
681.95	4864.38
682.07	4975.38
682.19	4933.12
682.31	4891.00
682.43	4854.25
682.56	4943.75
682.68	4850.25
682.80	4877.88
682.92	4917.75
683.04	4913.50
683.16	4889.50
683.28	4864.38
683.40	4917.12
683.52	4888.75
683.64	4943.88
683.76	4863.25
683.89	4841.00
684.01	4892.88
684.13	4956.62
684.25	4904.75
684.37	4889.75
684.49	4942.12
684.61	4902.88
684.73	4892.12
684.85	4880.62
684.97	4875.50
685.09	4957.38
685.21	4858.25
685.34	4887.00
685.46	5024.25
685.58	4913.88
685.70	4909.62
685.82	4926.88
685.94	4864.38
686.06	4859.00
686.18	4844.00
686.30	4868.00
686.42	4857.75
686.54	4909.38
686.66	4847.00
686.79	4970.12
686.91	4932.00
687.03	5005.88
687.15	4908.25
687.27	4886.88
687.39	4883.62
687.51	4952.88
687.63	4881.75
687.75	4921.62
687.87	4923.25
687.99	4966.50
688.11	4854.88
688.23	4907.38
688.35	4935.12
688.48	4927.88
688.60	4874.88
688.72	4888.50
688.84	4907.12
688.96	4922.00
689.08	4899.38
689.20	4862.00
689.32	5001.00
689.44	4891.75
689.56	4841.38
689.68	4856.00
689.80	4893.38
689.92	4859.88
690.04	4855.25
690.16	4937.50
690.28	4929.50
690.41	4916.38
690.53	4849.75
690.65	4912.50
690.77	4973.00
690.89	4966.62
691.01	4886.38
691.13	4863.00
691.25	4851.50
691.37	4870.75
691.49	4875.38
691.61	4820.88
691.73	4980.00
691.85	4901.62
691.97	4865.38
692.09	4871.88
692.21	4930.38
692.33	4977.25
692.45	4916.25
692.57	4852.12
692.70	4892.62
692.82	4914.38
692.94	4860.88
693.06	4875.00
693.18	4910.25
693.30	4847.75
693.42	4857.88
693.54	4909.25
693.66	4921.62
693.78	4924.12
693.90	4869.88
694.02	4909.12
694.14	4904.88
694.26	4892.12
694.38	4928.12
694.50	4924.62
694.62	4918.00
694.74	4854.88
694.86	4852.88
694.98	4900.75
695.10	4919.75
695.22	4930.75
695.34	4878.25
695.46	4874.12
695.58	4905.88
695.71	4918.50
695.83	4901.62
695.95	4888.25
696.07	4955.50
696.19	4867.75
696.31	4890.75
696.43	4851.00
696.55	5002.88
696.67	4926.25
696.79	4857.00
696.91	4892.50
697.03	4894.12
697.15	5015.25
697.27	4930.25
697.39	4888.75
697.51	4961.38
697.63	4869.75
697.75	4884.25
697.87	4925.25
697.99	4861.62
698.11	4840.38
698.23	4860.62
698.35	4877.25
698.47	4906.38
698.59	4930.38
698.71	4915.25
698.83	4977.12
698.95	4897.88
699.07	4929.12
699.19	4913.62
699.31	4930.38
699.43	4886.12
699.55	4946.00
699.67	4876.25
699.79	4890.75
699.91	4887.75
700.03	4931.62
700.15	4916.50
700.27	4902.62
700.39	4922.75
700.51	4878.12
700.63	4926.75
700.75	4901.62
700.87	4936.12
700.99	4894.62
701.11	4953.12
701.24	4927.00
701.36	4974.50
701.48	4982.62
701.60	4963.38
701.72	4884.00
701.84	4996.25
701.96	4951.50
702.08	4918.50
702.20	5022.00
702.32	4963.50
702.44	5004.12
702.56	4926.75
702.68	4940.00
702.80	4935.75
702.92	5036.12
703.04	4984.50
703.16	4969.75
703.28	4977.25
703.40	4936.75
703.52	4975.12
703.64	4964.38
703.76	4957.00
703.88	4917.00
704.00	4910.12
704.12	4934.00
704.24	4994.75
704.36	4959.88
704.48	4954.12
704.60	4894.88
704.72	4947.50
704.84	4951.62
704.96	4976.25
705.07	4962.62
705.19	4895.25
705.31	4927.38
705.43	4943.38
705.55	4907.38
705.67	4958.25
705.79	4955.38
705.91	4882.38
706.03	4915.62
706.15	4956.75
706.27	4963.00
706.39	4902.12
706.51	4919.62
706.63	4923.50
706.75	4983.75
706.87	4977.12
706.99	5013.50
707.11	4988.00
707.23	4939.25
707.35	4960.25
707.47	4928.75
707.59	4973.50
707.71	4998.25
707.83	4951.25
707.95	4969.75
708.07	4960.38
708.19	5070.12
708.31	4979.38
708.43	4893.00
708.55	4962.88
708.67	5024.12
708.79	4976.75
708.91	4977.25
709.03	4988.50
709.15	5009.62
709.27	4943.12
709.39	4953.50
709.51	4954.38
709.63	4976.62
709.75	4977.25
709.87	4917.12
709.99	5003.62
710.11	4931.12
710.23	4933.12
710.35	4938.75
710.47	5087.25
710.58	5012.12
710.70	5021.88
710.82	5025.88
710.94	4982.50
711.06	4984.25
711.18	4962.38
711.30	4939.38
711.42	5020.88
711.54	4967.62
711.66	4992.12
711.78	4920.62
711.90	5007.38
712.02	5024.75
712.14	4932.62
712.26	4911.12
712.38	5017.62
712.50	5033.38
712.62	4974.00
712.74	4936.62
712.86	4937.50
712.98	4989.38
713.10	4905.88
713.22	4887.12
713.34	4969.00
713.45	4935.50
713.57	4964.50
713.69	4926.62
713.81	4951.25
713.93	4967.50
714.05	4966.25
714.17	4918.38
714.29	5027.75
714.41	5049.88
714.53	4961.62
714.65	4976.62
714.77	4951.88
714.89	4919.75
715.01	5042.88
715.13	4930.12
715.25	4971.25
715.37	4916.50
715.49	4895.00
715.61	4976.88
715.72	5011.50
715.84	5029.25
715.96	4941.50
716.08	4933.38
716.20	5023.00
716.32	4995.25
716.44	4932.50
716.56	4918.62
716.68	4946.50
716.80	5048.00
716.92	5016.38
717.04	4973.88
717.16	4975.75
717.28	4940.50
717.40	4939.50
717.52	4951.75
717.63	4931.00
717.75	4948.12
717.87	4948.38
717.99	4949.00
718.11	4931.50
718.23	5010.50
718.35	4950.00
718.47	4948.88
718.59	4905.12
718.71	4913.38
718.83	4892.00
718.95	4931.75
719.07	4895.88
719.19	4886.62
719.30	4903.12
719.42	4937.75
719.54	4925.75
719.66	4928.00
719.78	4915.62
719.90	4845.50
720.02	4934.50
720.14	4924.25
720.26	4935.38
720.38	4939.50
720.50	4896.50
720.62	4830.62
720.74	4914.00
720.85	4896.88
720.97	4985.88
721.09	5007.00
721.21	4897.62
721.33	4948.88
721.45	4915.25
721.57	4909.88
721.69	4867.00
721.81	4817.50
721.93	4975.38
722.05	4930.62
722.16	4877.88
722.28	4853.12
722.40	4879.25
722.52	4935.12
722.64	4960.75
722.76	4838.75
722.88	4911.00
723.00	4924.50
723.12	4880.00
723.24	4904.12
723.36	4834.88
723.47	4923.12
723.59	4908.25
723.71	4868.62
723.83	4912.62
723.95	4860.38
724.07	4885.88
724.19	4903.38
724.31	4952.88
724.43	4855.25
724.55	4838.88
724.66	4846.75
724.78	5047.62
724.90	4851.50
725.02	4859.62
725.14	4828.25
725.26	4884.88
725.38	4810.38
725.50	4892.00
725.62	4890.75
725.74	4881.38
725.85	4875.00
725.97	4869.00
726.09	4941.38
726.21	5196.62
726.33	4924.00
726.45	4890.25
726.57	4860.88
726.69	4913.25
726.81	4896.12
726.92	4893.00
727.04	4900.62
727.16	4918.25
727.28	4879.75
727.40	4888.38
727.52	4875.88
727.64	5042.50
727.76	4996.38
727.88	4899.38
727.99	4854.00
728.11	4845.38
728.23	4876.62
728.35	4862.50
728.47	4857.88
728.59	4877.00
728.71	4914.75
728.83	4891.50
728.94	4903.25
729.06	4969.25
729.18	4945.25
729.30	4903.75
729.42	4859.38
729.54	4953.50
729.66	4975.00
729.78	4884.50
729.90	4884.88
730.01	4870.88
730.13	4786.38
730.25	4861.38
730.37	4843.50
730.49	4903.62
730.61	4859.88
730.73	4853.00
730.84	4902.38
730.96	4874.62
731.08	4896.00
731.20	4877.88
731.32	4847.62
731.44	5019.62
731.56	4857.62
731.68	4837.00
731.79	4866.62
731.91	4851.75
732.03	4849.75
732.15	4861.12
732.27	4821.00
732.39	4833.38
732.51	4878.12
732.62	4832.12
732.74	4812.88
732.86	4904.75
732.98	4872.25
733.10	4830.88
733.22	4840.12
733.34	4888.50
733.45	4785.50
733.57	4822.38
733.69	4780.50
733.81	4826.12
733.93	4843.38
734.05	4757.88
734.17	4825.12
734.28	4820.88
734.40	4831.62
734.52	4777.88
734.64	4832.38
734.76	4912.38
734.88	4813.00
735.00	4786.62
735.11	4830.50
735.23	4895.50
735.35	4796.50
735.47	4750.88
735.59	4864.62
735.71	4828.12
735.83	4844.75
735.94	4836.62
736.06	4838.62
736.18	4863.00
736.30	4877.12
736.42	4838.88
736.54	4806.00
736.65	4845.38
736.77	4979.75
736.89	4847.00
737.01	4804.12
737.13	4915.50
737.25	4717.00
737.36	4736.38
737.48	4788.75
737.60	4797.00
737.72	4776.88
737.84	4773.75
737.96	4835.62
738.08	4779.38
738.19	4878.00
738.31	4779.12
738.43	4769.88
738.55	4792.12
738.67	4803.00
738.79	4752.00
738.90	4742.12
739.02	4809.25
739.14	4722.38
739.26	4754.88
739.38	4764.00
739.50	4813.38
739.61	4742.00
739.73	4774.38
739.85	4748.38
739.97	4788.12
740.09	4807.12
740.20	4697.12
740.32	4763.25
740.44	4787.62
740.56	4715.62
740.68	4748.12
740.80	4746.12
740.91	4752.50
741.03	4781.75
741.15	4779.00
741.27	4713.25
741.39	4791.25
741.51	4775.50
741.62	4781.50
741.74	4723.75
741.86	4721.25
741.98	4691.25
742.10	4731.00
742.21	4700.50
742.33	4733.50
742.45	4688.12
742.57	4794.50
742.69	4707.75
742.80	4757.62
742.92	4707.50
743.04	4713.00
743.16	4665.38
743.28	4770.50
743.40	4682.88
743.51	4658.38
743.63	4669.50
743.75	4688.75
743.87	4697.75
743.99	4692.88
744.10	4678.25
744.22	4688.00
744.34	4668.75
744.46	4701.50
744.58	4695.25
744.69	4612.12
744.81	4677.62
744.93	4628.12
745.05	4608.12
745.17	4751.00
745.28	4730.62
745.40	4681.12
745.52	4654.75
745.64	4657.25
745.76	4695.38
745.87	4639.62
745.99	4622.38
746.11	4680.25
746.23	4602.25
746.35	4652.25
746.46	4606.25
746.58	4748.00
746.70	4658.00
746.82	4622.62
746.94	4630.75
747.05	4577.12
747.17	4570.88
747.29	4569.12
747.41	4583.88
747.53	4745.25
747.64	4584.50
747.76	4659.75
747.88	4656.25
748.00	4646.75
748.12	4636.38
748.23	4590.38
748.35	4613.75
748.47	4659.50
748.59	4623.88
748.70	4566.62
748.82	4543.25
748.94	4557.88
749.06	4548.38
749.18	4562.50
749.29	4535.38
749.41	4595.12
749.53	4552.12
749.65	4540.38
749.76	4601.00
749.88	4556.00
750.00	4573.50
750.12	4595.38
750.24	4569.00
750.35	4552.88
750.47	4504.50
750.59	4554.75
750.71	4500.88
750.82	4583.75
750.94	4486.62
751.06	4494.38
751.18	4494.00
751.30	4557.00
751.41	4546.38
751.53	4519.62
751.65	4489.00
751.77	4473.00
751.88	4541.88
752.00	4537.50
752.12	4458.88
752.24	4564.62
752.35	4512.00
752.47	4511.38
752.59	4502.12
752.71	4555.62
752.83	4445.38
752.94	4544.38
753.06	4446.12
753.18	4485.38
753.30	4444.12
753.41	4392.88
753.53	4427.25
753.65	4431.38
753.77	4486.62
753.88	4430.12
754.00	4440.25
754.12	4448.00
754.24	4512.75
754.35	4411.00
754.47	4359.25
754.59	4472.62
754.71	4439.88
754.82	4421.12
754.94	4401.62
755.06	4482.50
755.18	4440.00
755.29	4438.62
755.41	4366.50
755.53	4449.62
755.65	4367.38
755.76	4406.88
755.88	4375.25
756.00	4442.00
756.12	4371.12
756.23	4277.25
756.35	4327.62
756.47	4395.62
756.59	4359.12
756.70	4314.12
756.82	4338.88
756.94	4337.38
757.06	4356.75
757.17	4364.00
757.29	4332.25
757.41	4304.25
757.53	4345.00
757.64	4327.50
757.76	4333.62
757.88	4353.62
758.00	4359.38
758.11	4307.25
758.23	4247.75
758.35	4318.12
758.47	4275.00
758.58	4333.50
758.70	4256.12
758.82	4297.25
758.94	4231.88
759.05	4300.12
759.17	4222.75
759.29	4277.00
759.40	4336.00
759.52	4266.50
759.64	4255.50
759.76	4278.50
759.87	4308.00
759.99	4267.38
760.11	4234.38
760.23	4255.62
760.34	4280.62
760.46	4256.12
760.58	4225.50
760.70	4240.12
760.81	4272.25
760.93	4247.88
761.05	4274.12
761.16	4253.62
761.28	4194.00
761.40	4191.25
761.52	4152.00
761.63	4284.50
761.75	4209.38
761.87	4156.12
761.98	4131.25
762.10	4223.62
762.22	4184.88
762.34	4208.12
762.45	4167.00
762.57	4235.75
762.69	4313.62
762.81	4149.75
762.92	4183.75
763.04	4093.00
763.16	4188.12
763.27	4203.00
763.39	4122.88
763.51	4170.62
763.63	4170.62
763.74	4124.75
763.86	4070.88
763.98	4084.00
764.09	4107.12
764.21	4148.25
764.33	4078.50
764.44	4099.25
764.56	4106.12
764.68	4074.12
764.80	4099.00
764.91	4046.38
765.03	4172.12
765.15	4081.75
765.26	4079.62
765.38	4031.12
765.50	4116.88
765.62	4064.88
765.73	4072.38
765.85	4073.62
765.97	4003.88
766.08	4051.12
766.20	4055.50
766.32	4064.88
766.43	4082.12
766.55	4083.50
766.67	4012.25
766.79	4022.75
766.90	3986.88
767.02	3980.12
767.14	3992.75
767.25	3973.75
767.37	4140.50
767.49	4033.88
767.60	4012.12
767.72	4062.75
767.84	4016.75
767.95	3987.12
768.07	3967.88
768.19	4009.12
768.31	4014.88
768.42	3992.50
768.54	3960.00
768.66	3983.25
768.77	4015.75
768.89	3989.38
769.01	3925.62
769.12	3987.00
769.24	3979.25
769.36	3927.75
769.47	3910.75
769.59	3894.88
769.71	3971.38
769.82	3900.50
769.94	3895.88
770.06	3877.25
770.17	3988.00
770.29	3931.00
770.41	3936.50
770.53	3947.00
770.64	3883.88
770.76	3893.88
770.88	3912.50
770.99	3931.75
771.11	3852.62
771.23	3889.62
771.34	3862.88
771.46	3986.38
771.58	3934.75
771.69	3896.50
771.81	3864.62
771.93	3908.12
772.04	3824.25
772.16	3862.00
772.28	3839.50
772.39	3893.88
772.51	3831.00
772.63	3868.50
772.74	3812.12
772.86	3800.62
772.98	3941.62
773.09	3783.88
773.21	3809.38
773.33	3830.62
773.44	3824.75
773.56	3793.12
773.68	3803.25
773.79	3849.88
773.91	3763.00
774.03	3773.12
774.14	3765.88
774.26	3816.88
774.38	3734.12
774.49	3709.25
774.61	3732.12
774.73	3754.88
774.84	3729.88
774.96	3714.62
775.08	3749.88
775.19	3761.38
775.31	3778.12
775.43	3729.75
775.54	3716.25
775.66	3673.38
775.77	3764.12
775.89	3662.25
776.01	3727.75
776.12	3748.75
776.24	3715.50
776.36	3647.12
776.47	3668.62
776.59	3707.25
776.71	3735.00
776.82	3606.75
776.94	3639.88
777.06	3660.38
777.17	3728.50
777.29	3632.38
777.41	3628.25
777.52	3690.62
777.64	3631.75
777.75	3681.50
777.87	3581.38
777.99	3607.38
778.10	3672.00
778.22	3611.25
778.34	3619.00
778.45	3610.88
778.57	3658.38
778.69	3638.75
778.80	3595.75
778.92	3719.62
779.04	3618.00
779.15	3599.88
779.27	3614.50
779.38	3620.50
779.50	3640.75
779.62	3523.50
779.73	3545.00
779.85	3500.38
779.97	3671.00
780.08	3554.75
780.20	3541.38
780.31	3599.25
780.43	3585.50
780.55	3524.00
780.66	3534.12
780.78	3571.00
780.90	3635.62
781.01	3496.88
781.13	3518.75
781.25	3494.75
781.36	3569.12
781.48	3485.75
781.59	3492.00
781.71	3530.38
781.83	3515.00
781.94	3469.12
782.06	3465.12
782.18	3545.25
782.29	3455.50
782.41	3412.88
782.52	3517.00
782.64	3535.38
782.76	3464.62
782.87	3470.88
782.99	3436.00
783.10	3580.38
783.22	3594.88
783.34	3456.12
783.45	3439.75
783.57	3436.12
783.69	3407.88
783.80	3433.50
783.92	3446.00
784.03	3427.62
784.15	3382.12
784.27	3401.00
784.38	3395.12
784.50	3363.12
784.61	3398.88
784.73	3368.12
784.85	3362.88
784.96	3354.12
785.08	3422.38
785.19	3401.25
785.31	3368.75
785.43	3329.12
785.54	3327.88
785.66	3387.62
785.77	3361.38
785.89	3381.88
786.01	3297.38
786.12	3343.00
786.24	3359.88
786.35	3415.75
786.47	3349.38
786.59	3322.00
786.70	3274.38
786.82	3336.62
786.93	3339.62
787.05	3320.38
787.17	3315.12
787.28	3325.00
787.40	3323.62
787.51	3318.25
787.63	3328.62
787.75	3259.62
787.86	3316.88
787.98	3308.25
788.09	3273.50
788.21	3322.88
788.33	3300.75
788.44	3292.62
788.56	3230.00
788.67	3296.50
788.79	3240.62
788.91	3248.12
789.02	3240.75
789.14	3248.50
789.25	3320.75
789.37	3245.75
789.48	3213.12
789.60	3234.62
789.72	3185.25
789.83	3244.25
789.95	3233.12
790.06	3171.12
790.18	3169.25
790.30	3231.62
790.41	3205.12
790.53	3172.88
790.64	3143.88
790.76	3141.38
790.87	3171.38
790.99	3187.00
791.11	3205.50
791.22	3153.00
791.34	3164.25
791.45	3195.38
791.57	3182.00
791.68	3140.75
791.80	3123.62
791.92	3205.25
792.03	3119.88
792.15	3090.88
792.26	3114.38
792.38	3096.75
792.49	3161.00
792.61	3122.12
792.73	3120.75
792.84	3114.62
792.96	3237.75
793.07	3107.75
793.19	3933.75
793.30	3197.62
793.42	3137.25
793.54	3021.50
793.65	3041.62
793.77	3229.25
793.88	3077.75
794.00	3029.50
794.11	3082.88
794.23	3013.88
794.34	3075.50
794.46	3007.00
794.58	3013.75
794.69	3168.62
794.81	3121.62
794.92	3012.88
795.04	3015.00
795.15	3127.12
795.27	3076.50
795.39	3027.75
795.50	3021.62
795.62	3005.75
795.73	3009.75
795.85	3000.25
795.96	3030.50
796.08	3081.50
796.19	2981.62
796.31	2989.25
796.42	2961.00
796.54	2980.00
796.66	3027.12
796.77	2952.12
796.89	2939.38
797.00	3038.38
797.12	2910.00
797.23	2956.25
797.35	2981.38
797.46	3025.75
797.58	3034.00
797.69	2987.88
797.81	2938.00
797.93	2952.50
798.04	2917.75
798.16	2920.50
798.27	2949.00
798.39	2900.12
798.50	2898.75
798.62	2879.88
798.73	2879.75
798.85	3007.00
798.96	2929.00
799.08	2936.62
799.19	2953.50
799.31	2912.50
799.43	2896.00
799.54	2878.38
799.66	2912.00
799.77	2936.12
799.89	2864.38
800.00	2815.38
800.12	2869.25
800.23	2943.88
800.35	2959.00
800.46	2806.25
800.58	2794.62
800.69	2871.25
800.81	2838.12
800.92	2808.88
801.04	2851.00
801.16	2783.50
801.27	2791.62
801.39	2800.75
801.50	2811.50
801.62	2818.62
801.73	2867.00
801.85	2868.88
801.96	2792.50
802.08	2872.25
802.19	2862.38
802.31	2789.12
802.42	2809.00
802.54	2885.88
802.65	2859.75
802.77	2751.12
802.88	2812.38
803.00	2744.25
803.11	2899.12
803.23	2791.75
803.34	2778.12
803.46	2794.88
803.57	2748.38
803.69	2813.00
803.80	2724.62
803.92	2827.38
804.03	2762.50
804.15	2769.12
804.26	2781.50
804.38	2792.50
804.50	2716.88
804.61	2747.38
804.73	2723.62
804.84	2739.38
804.96	2653.38
805.07	2709.12
805.19	2680.88
805.30	2717.62
805.42	2751.00
805.53	2701.75
805.65	2658.00
805.76	2629.38
805.88	2654.38
805.99	2654.00
806.11	2672.25
806.22	2613.50
806.34	2630.38
806.45	2635.38
806.57	2607.75
806.68	2646.00
806.80	2532.75
806.91	2565.00
807.03	2535.50
807.14	2502.50
807.26	2502.62
807.37	2501.62
807.49	2540.75
807.60	2509.12
807.72	2590.38
807.83	2587.12
807.95	2510.25
808.06	2503.50
808.17	2507.62
808.29	2497.25
808.40	2414.38
808.52	2444.25
808.63	2454.88
808.75	2430.12
808.86	2410.75
808.98	2428.88
809.09	2376.88
809.21	2398.00
809.32	2354.38
809.44	2400.62
809.55	2308.00
809.67	2343.50
809.78	2289.75
809.90	2341.38
810.01	2384.50
810.13	2272.50
810.24	2306.62
810.36	2233.00
810.47	2301.62
810.59	2264.88
810.70	2264.75
810.82	2281.88
810.93	2175.38
811.05	2179.88
811.16	2177.00
811.27	2167.50
811.39	2174.88
811.50	2199.38
811.62	2090.38
811.73	2071.12
811.85	2152.38
811.96	2124.88
812.08	2134.50
812.19	2107.62
812.31	2099.38
812.42	2066.25
812.54	2027.75
812.65	2097.25
812.77	2092.88
812.88	2069.88
813.00	2065.12
813.11	2034.62
813.22	1958.88
813.34	1966.62
813.45	1987.50
813.57	2057.00
813.68	2057.62
813.80	1951.75
813.91	1904.88
814.03	1915.12
814.14	2013.00
814.26	1886.25
814.37	1902.25
814.49	1882.75
814.60	1840.25
814.71	1844.25
814.83	1840.75
814.94	1790.62
815.06	1813.50
815.17	1811.88
815.29	1803.75
815.40	1759.12
815.52	1876.50
815.63	1770.12
815.75	1735.75
815.86	1766.88
815.97	1699.38
816.09	1741.62
816.20	1749.75
816.32	1743.62
816.43	1661.88
816.55	1711.12
816.66	1680.50
816.78	1773.38
816.89	1679.25
817.00	1651.50
817.12	1632.50
817.23	1616.75
817.35	1672.38
817.46	1632.00
817.58	1582.75
817.69	1706.88
817.81	1590.50
817.92	1614.00
818.03	1568.25
818.15	1568.50
818.26	1524.25
818.38	1501.75
818.49	1522.00
818.61	1546.12
818.72	1483.88
818.83	2591.12
818.95	1635.75
819.06	1472.88
819.18	1471.62
819.29	1480.38
819.41	1456.00
819.52	1459.50
819.64	1446.75
819.75	1396.75
819.86	1370.62
819.98	1405.00
820.09	1432.50
820.21	1385.88
820.32	1345.25
820.44	1398.25
820.55	1446.25
820.66	1338.25
820.78	1382.50
820.89	1342.62
821.01	1363.50
821.12	1330.00
821.23	1324.50
821.35	1290.50
821.46	1353.00
821.58	1289.50
821.69	1264.12
821.81	1253.25
821.92	1331.75
822.03	1248.38
822.15	1253.25
822.26	1198.12
822.38	1199.75
822.49	1233.12
822.61	1217.88
822.72	1224.00
822.83	1262.25
822.95	1186.38
823.06	1185.12
823.18	1234.88
823.29	1249.00
823.40	1177.88
823.52	1135.75
823.63	1091.50
823.75	1238.38
823.86	1127.75
823.97	1072.38
824.09	1148.12
824.20	1071.12
824.32	1097.25
824.43	1066.88
824.55	1126.12
824.66	1176.25
824.77	1071.38
824.89	1075.25
825.00	1125.75
825.12	1062.38
825.23	1065.62
825.34	990.50
825.46	994.12
825.57	1063.12
825.69	996.25
825.80	937.50
825.91	983.12
826.03	950.12
826.14	1009.62
826.26	947.50
826.37	977.75
826.48	952.12
826.60	965.25
826.71	926.88
826.83	963.62
826.94	964.88
827.05	973.38
827.17	965.62
827.28	918.88
827.39	898.75
827.51	871.88
827.62	901.38
827.74	907.62
827.85	886.38
827.96	869.25
828.08	887.00
828.19	997.25
828.31	886.50
828.42	829.88
828.53	900.88
828.65	930.88
828.76	929.38
828.87	894.25
828.99	843.62
