Wavelength (nm)	Reflectance (%)
377.35	0.0000
377.48	0.0000
377.62	0.0000
377.75	6.0426
377.88	0.0000
378.02	0.0000
378.15	200.0000
378.28	118.7000
378.41	0.0000
378.55	200.0000
378.68	75.8000
378.81	200.0000
378.95	200.0000
379.08	200.0000
379.21	200.0000
379.35	131.0968
379.48	142.8837
379.61	127.9172
379.74	64.1897
379.88	0.0000
380.01	12.9691
380.14	44.9749
380.28	1.4927
380.41	0.0000
380.54	83.3828
380.68	80.9151
380.81	30.4290
380.94	11.9070
381.07	39.6603
381.21	45.1228
381.34	0.0000
381.47	6.7148
381.61	73.3428
381.74	53.6377
381.87	0.0000
382.00	38.6914
382.14	64.0518
382.27	0.0000
382.40	0.0000
382.54	39.0336
382.67	48.2464
382.80	10.8952
382.93	31.6772
383.07	40.0943
383.20	33.8142
383.33	59.8107
383.47	23.4099
383.60	24.9630
383.73	56.4012
383.86	56.1592
384.00	12.2361
384.13	48.2099
384.26	56.9923
384.40	24.8584
384.53	7.7592
384.66	24.9593
384.79	41.3314
384.93	31.6103
385.06	9.5522
385.19	13.0296
385.33	16.7231
385.46	0.0000
385.59	9.8610
385.72	47.9762
385.86	40.1654
385.99	40.1110
386.12	40.9518
386.25	13.2894
386.39	19.8138
386.52	35.5620
386.65	27.2813
386.79	5.0230
386.92	37.1946
387.05	44.6802
387.18	20.1631
387.32	12.6346
387.45	53.6422
387.58	44.0406
387.71	24.0787
387.85	27.9777
387.98	26.8455
388.11	25.2037
388.25	11.7688
388.38	4.3918
388.51	16.5557
388.64	40.4346
388.78	42.3636
388.91	16.4706
389.04	38.5434
389.17	33.2474
389.31	0.0000
389.44	0.0000
389.57	27.5951
389.70	24.9398
389.84	31.5277
389.97	34.2275
390.10	39.9574
390.24	42.2682
390.37	20.3812
390.50	15.6060
390.63	20.3529
390.77	11.8018
390.90	12.6629
391.03	29.4840
391.16	23.2809
391.30	27.5330
391.43	42.9709
391.56	21.0874
391.69	23.9445
391.83	41.2275
391.96	18.3837
392.09	7.8883
392.22	37.1321
392.36	38.3776
392.49	7.9610
392.62	11.2489
392.75	21.9426
392.89	16.3007
393.02	23.1120
393.15	11.9505
393.28	35.6307
393.42	25.4865
393.55	24.9820
393.68	11.8483
393.81	35.6748
393.95	34.7420
394.08	30.7533
394.21	22.1740
394.34	22.7791
394.48	25.8327
394.61	16.3971
394.74	22.7320
394.87	20.6534
395.01	37.6384
395.14	21.4333
395.27	7.0657
395.40	15.8662
395.54	22.5122
395.67	0.0000
395.80	14.0993
395.93	30.7545
396.07	29.5045
396.20	25.2810
396.33	28.8068
396.46	31.0790
396.59	37.1061
396.73	18.7889
396.86	15.9929
396.99	33.0365
397.12	47.3671
397.26	0.0000
397.39	2.9138
397.52	23.4849
397.65	17.0572
397.79	0.0000
397.92	34.2998
398.05	46.1779
398.18	22.6868
398.32	10.9698
398.45	17.0824
398.58	23.6571
398.71	16.1532
398.84	15.8454
398.98	17.3660
399.11	25.0968
399.24	20.0810
399.37	19.8804
399.51	24.1680
399.64	23.9707
399.77	19.7974
399.90	23.9219
400.03	13.9877
400.17	8.3005
400.30	9.9068
400.43	10.5850
400.56	3.8912
400.70	17.8218
400.83	23.4201
400.96	25.2689
401.09	18.6852
401.23	21.9938
401.36	17.7079
401.49	18.0164
401.62	21.4934
401.75	28.7599
401.89	20.6591
402.02	18.2930
402.15	18.2045
402.28	19.3931
402.41	22.9243
402.55	15.9021
402.68	14.1414
402.81	20.9355
402.94	23.2084
403.08	13.5865
403.21	18.6102
403.34	29.2851
403.47	20.2803
403.60	8.9379
403.74	16.8047
403.87	20.4548
404.00	18.7022
404.13	25.5354
404.26	24.7608
404.40	21.6619
404.53	28.0731
404.66	16.2238
404.79	11.1000
404.93	25.3098
405.06	23.2829
405.19	13.4837
405.32	16.9729
405.45	24.3153
405.59	25.7199
405.72	3.9547
405.85	14.3888
405.98	25.0823
406.11	18.8089
406.25	2.1401
406.38	22.8454
406.51	19.7775
406.64	15.2164
406.77	10.6121
406.91	17.7184
407.04	19.2650
407.17	18.3614
407.30	7.1205
407.43	5.7331
407.57	12.4923
407.70	14.4151
407.83	17.1187
407.96	13.1315
408.09	23.2785
408.23	24.1982
408.36	8.9575
408.49	4.1481
408.62	23.5984
408.75	17.8232
408.89	12.1262
409.02	16.8788
409.15	16.3558
409.28	19.8383
409.41	8.3656
409.55	8.0000
409.68	24.1223
409.81	20.8225
409.94	10.2492
410.07	26.0063
410.20	25.4101
410.34	16.1093
410.47	14.5944
410.60	19.7819
410.73	15.4969
410.86	17.9657
411.00	17.8185
411.13	21.3281
411.26	13.6519
411.39	14.7379
411.52	11.9553
411.66	15.2493
411.79	13.6244
411.92	19.3237
412.05	19.5667
412.18	14.2320
412.31	7.7770
412.45	17.7283
412.58	15.4093
412.71	7.5398
412.84	15.8954
412.97	23.1020
413.11	13.4123
413.24	2.3557
413.37	11.8504
413.50	13.2932
413.63	5.1366
413.76	4.7621
413.90	17.3160
414.03	15.4584
414.16	13.4595
414.29	7.5030
414.42	13.6127
414.56	12.0864
414.69	12.3066
414.82	8.6073
414.95	17.0414
415.08	10.1188
415.21	19.6522
415.35	13.5272
415.48	7.9000
415.61	18.5356
415.74	23.9947
415.87	0.7256
416.00	7.9805
416.14	20.6821
416.27	11.9349
416.40	6.5745
416.53	18.6869
416.66	20.2938
416.79	10.9933
416.93	10.4045
417.06	11.8859
417.19	14.0490
417.32	16.6538
417.45	13.0709
417.58	15.6229
417.72	17.4749
417.85	12.6940
417.98	9.1953
418.11	16.2858
418.24	13.4706
418.37	11.7464
418.51	7.4602
418.64	5.7785
418.77	11.1300
418.90	11.0679
419.03	6.9111
419.16	18.0032
419.29	25.6396
419.43	9.5565
419.56	8.3573
419.69	18.0000
419.82	15.4625
419.95	6.9253
420.08	9.2749
420.22	9.4667
420.35	6.6605
420.48	10.3383
420.61	7.4299
420.74	17.4992
420.87	22.5806
421.00	18.0419
421.14	9.1891
421.27	14.0186
421.40	13.1639
421.53	10.3906
421.66	12.9702
421.79	16.6318
421.93	19.7104
422.06	14.9700
422.19	11.4429
422.32	11.7885
422.45	15.9544
422.58	10.1849
422.71	8.5046
422.85	14.9536
422.98	17.1322
423.11	13.3405
423.24	15.9514
423.37	17.4417
423.50	14.0939
423.63	13.2574
423.77	11.0819
423.90	6.2845
424.03	7.4730
424.16	10.8717
424.29	10.0136
424.42	13.8069
424.55	14.8941
424.69	14.8782
424.82	15.1366
424.95	10.7308
425.08	10.4050
425.21	12.1903
425.34	10.9040
425.47	10.6900
425.60	14.5777
425.74	12.2802
425.87	11.1933
426.00	14.8041
426.13	12.5043
426.26	12.5539
426.39	8.4985
426.52	10.3670
426.66	15.5037
426.79	8.0000
426.92	3.9505
427.05	11.6432
427.18	12.5524
427.31	8.2007
427.44	12.8176
427.57	18.4249
427.71	16.6992
427.84	10.8036
427.97	7.6361
428.10	12.5312
428.23	19.0584
428.36	9.2083
428.49	7.4406
428.62	10.7155
428.76	13.9872
428.89	7.0003
429.02	8.8853
429.15	17.7263
429.28	17.3574
429.41	12.5482
429.54	7.6981
429.67	14.6741
429.81	14.1346
429.94	10.2024
430.07	4.3512
430.20	10.4271
430.33	11.5088
430.46	8.1504
430.59	12.7808
430.72	17.2725
430.85	16.4997
430.99	12.2537
431.12	10.2595
431.25	10.3582
431.38	13.0921
431.51	6.7425
431.64	5.9438
431.77	9.8517
431.90	10.6621
432.03	7.1341
432.17	9.9374
432.30	14.4004
432.43	13.4782
432.56	10.0825
432.69	8.0132
432.82	9.6777
432.95	9.0729
433.08	9.3187
433.21	9.4111
433.35	14.0662
433.48	12.9748
433.61	13.5552
433.74	11.1861
433.87	13.1412
434.00	11.8814
434.13	11.8451
434.26	9.6893
434.39	12.9085
434.53	12.2552
434.66	13.5009
434.79	10.0790
434.92	13.3497
435.05	12.9009
435.18	8.4461
435.31	6.4190
435.44	11.6490
435.57	13.3499
435.70	10.8278
435.84	7.9106
435.97	10.9456
436.10	12.5893
436.23	9.3998
436.36	11.5816
436.49	18.3195
436.62	14.2913
436.75	11.4338
436.88	12.1826
437.01	14.8630
437.14	14.8114
437.28	12.0720
437.41	9.9059
437.54	11.8185
437.67	13.9741
437.80	5.4144
437.93	7.0680
438.06	13.1182
438.19	13.0014
438.32	7.5659
438.45	11.7072
438.58	13.3977
438.72	12.3107
438.85	10.3421
438.98	9.0462
439.11	11.1279
439.24	12.2645
439.37	7.3693
439.50	7.9110
439.63	11.9660
439.76	14.4569
439.89	13.5472
440.02	12.4327
440.15	12.6929
440.29	14.3261
440.42	11.2735
440.55	6.7800
440.68	12.8092
440.81	13.7773
440.94	6.1698
441.07	7.2472
441.20	13.8187
441.33	11.3176
441.46	8.8238
441.59	12.7745
441.72	13.6404
441.85	11.9056
441.99	9.4308
442.12	9.5423
442.25	9.1063
442.38	11.4950
442.51	10.6302
442.64	11.3285
442.77	12.0628
442.90	13.0515
443.03	9.8751
443.16	7.9400
443.29	10.4831
443.42	9.3975
443.55	10.7937
443.68	11.4049
443.82	14.1808
443.95	12.2096
444.08	13.5601
444.21	11.8387
444.34	12.0504
444.47	12.0531
444.60	13.9654
444.73	10.6291
444.86	10.1796
444.99	10.8566
445.12	11.2026
445.25	8.5271
445.38	9.6281
445.51	11.7532
445.64	15.2123
445.78	9.3843
445.91	9.3562
446.04	14.3034
446.17	11.1186
446.30	5.8771
446.43	13.0526
446.56	16.2778
446.69	10.7069
446.82	10.1605
446.95	11.9801
447.08	11.6983
447.21	9.0279
447.34	10.0884
447.47	12.6684
447.60	10.4474
447.73	9.5991
447.86	11.1146
447.99	10.9547
448.13	11.5180
448.26	11.8577
448.39	10.0996
448.52	10.2235
448.65	11.7027
448.78	9.3259
448.91	11.9047
449.04	12.2524
449.17	11.4651
449.30	11.6822
449.43	10.2586
449.56	9.4396
449.69	13.2597
449.82	10.9497
449.95	8.8863
450.08	12.0232
450.21	12.2286
450.34	7.7570
450.47	10.1037
450.60	12.2165
450.73	12.5885
450.87	11.4350
451.00	7.7337
451.13	10.2957
451.26	9.7798
451.39	8.9985
451.52	9.8793
451.65	15.6545
451.78	15.5435
451.91	12.5576
452.04	10.0750
452.17	11.6955
452.30	11.7011
452.43	7.5938
452.56	11.6453
452.69	11.4685
452.82	10.0602
452.95	11.1753
453.08	10.9301
453.21	11.2385
453.34	13.0839
453.47	9.9976
453.60	8.6779
453.73	11.5077
453.86	9.9265
453.99	10.5549
454.12	12.0636
454.25	12.1311
454.38	10.7285
454.52	10.4915
454.65	11.1913
454.78	11.3839
454.91	11.3028
455.04	12.5435
455.17	10.0837
455.30	9.7957
455.43	12.8278
455.56	10.5387
455.69	8.9746
455.82	12.4110
455.95	12.0546
456.08	9.9616
456.21	12.6059
456.34	12.6131
456.47	11.9802
456.60	11.7659
456.73	10.1803
456.86	10.4200
456.99	12.1472
457.12	10.2284
457.25	9.4001
457.38	10.5372
457.51	9.8645
457.64	8.9446
457.77	10.9914
457.90	11.8897
458.03	11.3094
458.16	10.4436
458.29	11.2219
458.42	11.5623
458.55	12.3091
458.68	11.4021
458.81	8.7027
458.94	10.6888
459.07	12.3261
459.20	10.3585
459.33	9.8752
459.46	12.7222
459.59	12.1109
459.72	8.0082
459.85	8.6193
459.98	11.0552
460.11	13.0365
460.24	9.2542
460.37	10.5045
460.50	11.6017
460.63	11.7547
460.76	9.4410
460.89	10.6258
461.02	11.9588
461.15	11.9139
461.28	8.8744
461.41	10.6837
461.54	11.8165
461.67	9.8088
461.80	9.1938
461.93	10.8218
462.06	10.6271
462.19	11.0167
462.32	11.1257
462.45	11.3156
462.58	11.5411
462.71	11.5126
462.84	10.3024
462.97	10.7176
463.10	9.3294
463.23	9.5454
463.36	9.9330
463.49	9.2216
463.62	9.4214
463.75	10.8926
463.88	12.5238
464.01	8.7823
464.14	10.3961
464.27	11.5327
464.40	10.8102
464.53	9.2605
464.66	10.9448
464.79	11.1169
464.92	10.1060
465.05	10.4242
465.18	10.5094
465.31	12.0247
465.44	11.8166
465.57	9.3044
465.70	9.7511
465.83	11.5276
465.96	9.4399
466.09	8.4219
466.22	11.8698
466.35	12.1668
466.48	10.9485
466.61	11.5109
466.74	11.4146
466.87	10.4277
467.00	9.0615
467.13	9.7667
467.26	11.3444
467.39	12.0322
467.52	10.5088
467.65	11.7780
467.78	10.6743
467.91	9.7124
468.04	9.4997
468.17	11.8869
468.30	11.8352
468.43	11.0686
468.56	9.9701
468.69	11.0649
468.82	10.7029
468.95	10.8124
469.08	11.5969
469.21	11.0181
469.34	9.1104
469.47	9.4573
469.60	9.0302
469.73	8.2469
469.86	10.8578
469.99	12.4545
470.11	11.0405
470.24	10.8801
470.37	12.4663
470.50	12.1343
470.63	11.0727
470.76	9.8107
470.89	11.2443
471.02	11.3988
471.15	8.8076
471.28	8.7418
471.41	11.2224
471.54	11.2405
471.67	9.2554
471.80	10.4659
471.93	11.3735
472.06	11.9300
472.19	9.0151
472.32	9.4872
472.45	10.3596
472.58	10.0334
472.71	9.4525
472.84	11.4846
472.97	11.0013
473.10	12.0110
473.23	11.3438
473.36	10.6131
473.49	10.2352
473.62	10.6493
473.74	10.0043
473.87	11.2391
474.00	10.9878
474.13	10.1610
474.26	11.0087
474.39	10.6193
474.52	9.7943
474.65	11.4751
474.78	12.2810
474.91	10.3202
475.04	10.3434
475.17	10.9551
475.30	9.2034
475.43	9.2806
475.56	10.8402
475.69	11.4680
475.82	10.4679
475.95	11.4086
476.08	11.0531
476.21	10.9098
476.34	9.1431
476.46	10.1495
476.59	10.0989
476.72	11.0813
476.85	10.2129
476.98	10.7739
477.11	11.1136
477.24	10.7139
477.37	9.1059
477.50	10.2008
477.63	10.9575
477.76	10.2688
477.89	9.9419
478.02	10.8085
478.15	10.5189
478.28	10.3808
478.41	9.7237
478.54	10.1771
478.66	10.3226
478.79	10.5569
478.92	9.8824
479.05	10.5440
479.18	10.4144
479.31	10.3409
479.44	10.3613
479.57	10.5395
479.70	11.0712
479.83	11.6090
479.96	10.4090
480.09	9.8715
480.22	10.2715
480.35	9.9264
480.48	9.9037
480.60	10.5665
480.73	11.2501
480.86	11.3215
480.99	11.1610
481.12	10.0737
481.25	10.8850
481.38	10.8831
481.51	10.2987
481.64	10.3244
481.77	11.0015
481.90	10.7659
482.03	9.9956
482.16	10.3331
482.29	10.2149
482.41	10.7478
482.54	10.6648
482.67	10.8969
482.80	11.6777
482.93	11.1359
483.06	10.4574
483.19	10.8111
483.32	11.4223
483.45	10.3605
483.58	10.6530
483.71	10.7068
483.84	10.3373
483.97	10.1862
484.09	10.4614
484.22	10.9882
484.35	11.1105
484.48	10.9680
484.61	10.7176
484.74	11.0054
484.87	10.3614
485.00	10.7282
485.13	10.7846
485.26	11.1447
485.39	10.3551
485.52	10.5357
485.64	9.8934
485.77	10.5357
485.90	10.1824
486.03	11.0229
486.16	11.2479
486.29	11.3789
486.42	11.0324
486.55	10.8671
486.68	10.5448
486.81	10.7819
486.94	10.6732
487.06	10.3832
487.19	10.8247
487.32	10.9801
487.45	10.6889
487.58	11.2740
487.71	11.0037
487.84	10.2321
487.97	10.1639
488.10	10.4842
488.23	9.9071
488.35	10.4895
488.48	11.1531
488.61	11.4081
488.74	11.2350
488.87	10.8932
489.00	10.7507
489.13	10.9353
489.26	10.6142
489.39	10.4842
489.52	11.1297
489.64	11.0545
489.77	11.0590
489.90	11.1723
490.03	11.2805
490.16	11.2400
490.29	11.0140
490.42	10.9680
490.55	10.9599
490.68	11.4304
490.81	10.9274
490.93	11.2118
491.06	11.0877
491.19	10.6365
491.32	10.5733
491.45	11.1096
491.58	11.3068
491.71	11.7260
491.84	11.7451
491.97	11.3034
492.09	11.4790
492.22	10.9557
492.35	10.7040
492.48	11.2998
492.61	11.1148
492.74	10.7603
492.87	11.2990
493.00	11.0890
493.12	10.6729
493.25	11.0337
493.38	11.5707
493.51	11.3558
493.64	11.3526
493.77	11.7456
493.90	11.3466
494.03	10.7268
494.16	11.2398
494.28	11.9026
494.41	11.0827
494.54	11.0384
494.67	11.7872
494.80	11.2663
494.93	10.6342
495.06	11.3506
495.19	11.8307
495.31	11.5988
495.44	11.3457
495.57	11.5106
495.70	11.9061
495.83	11.9555
495.96	11.3823
496.09	11.2595
496.22	11.7395
496.34	11.4406
496.47	10.9923
496.60	11.0656
496.73	11.7510
496.86	11.1218
496.99	11.3907
497.12	11.4883
497.24	11.5922
497.37	11.5668
497.50	11.9104
497.63	10.9671
497.76	10.7671
497.89	11.7085
498.02	11.6364
498.15	11.1336
498.27	11.3751
498.40	11.6987
498.53	10.7897
498.66	11.0452
498.79	11.2341
498.92	11.6352
499.05	11.7941
499.17	11.4848
499.30	11.0148
499.43	11.6367
499.56	11.3887
499.69	11.3442
499.82	12.1193
499.95	12.4263
500.07	12.0219
500.20	11.4745
500.33	11.7202
500.46	11.8067
500.59	11.5885
500.72	11.3510
500.85	11.8795
500.97	12.0589
501.10	11.7950
501.23	11.3953
501.36	11.6139
501.49	11.9264
501.62	11.1325
501.75	11.5238
501.87	11.8299
502.00	11.5885
502.13	11.6400
502.26	12.0294
502.39	11.9518
502.52	12.2280
502.64	12.1172
502.77	11.9196
502.90	12.1137
503.03	12.0181
503.16	11.5593
503.29	11.8657
503.42	12.0720
503.54	11.9367
503.67	11.3549
503.80	12.0671
503.93	12.2623
504.06	11.8091
504.19	11.8240
504.31	12.1297
504.44	11.6337
504.57	11.8180
504.70	12.0290
504.83	12.1434
504.96	12.3846
505.08	12.0390
505.21	11.7056
505.34	12.0505
505.47	11.9276
505.60	11.8926
505.73	11.6659
505.85	11.9189
505.98	12.0836
506.11	12.2717
506.24	12.1248
506.37	12.5137
506.50	12.4298
506.62	12.2380
506.75	11.7667
506.88	11.9712
507.01	12.3004
507.14	12.2610
507.27	12.2681
507.39	12.5576
507.52	12.1931
507.65	12.5859
507.78	12.3581
507.91	11.9845
508.04	11.9907
508.16	12.2986
508.29	12.2114
508.42	12.5587
508.55	12.2857
508.68	12.4898
508.81	12.6692
508.93	12.3145
509.06	12.1352
509.19	12.6629
509.32	12.4583
509.45	12.4200
509.57	12.4524
509.70	12.6757
509.83	12.6624
509.96	12.6669
510.09	12.5937
510.22	12.8457
510.34	12.1278
510.47	12.2042
510.60	12.2326
510.73	12.3064
510.86	12.4164
510.98	12.7812
511.11	12.6397
511.24	12.8540
511.37	12.6798
511.50	12.4380
511.63	12.6599
511.75	12.6520
511.88	12.4683
512.01	12.3418
512.14	12.3934
512.27	12.3495
512.39	12.4689
512.52	12.7606
512.65	12.9651
512.78	12.9012
512.91	12.7423
513.03	12.6841
513.16	12.5378
513.29	12.6562
513.42	12.4306
513.55	12.8698
513.67	13.0613
513.80	12.9978
513.93	12.7261
514.06	12.9607
514.19	12.5449
514.31	12.6750
514.44	12.6840
514.57	12.4718
514.70	12.7849
514.83	13.0532
514.95	12.6814
515.08	12.6187
515.21	12.9515
515.34	12.9088
515.47	12.8491
515.59	13.0540
515.72	12.9296
515.85	13.1223
515.98	12.9820
516.11	12.7971
516.23	12.8852
516.36	13.2977
516.49	12.9485
516.62	12.6730
516.75	13.2562
516.87	13.1618
517.00	12.6891
517.13	12.8359
517.26	13.5924
517.39	13.1899
517.51	12.7333
517.64	13.1206
517.77	13.0623
517.90	12.5622
518.02	12.9412
518.15	13.3050
518.28	13.0056
518.41	12.9955
518.54	13.1244
518.66	12.8913
518.79	13.0466
518.92	13.0893
519.05	12.8820
519.18	12.8955
519.30	12.9120
519.43	12.8843
519.56	12.6175
519.69	12.9789
519.81	13.1774
519.94	13.2250
520.07	13.1651
520.20	13.3283
520.33	13.4285
520.45	13.1743
520.58	12.9053
520.71	12.9726
520.84	13.4358
520.96	13.5624
521.09	13.4198
521.22	13.5159
521.35	13.8245
521.48	13.8617
521.60	13.5806
521.73	13.4363
521.86	13.7046
521.99	13.6160
522.11	13.3170
522.24	13.3723
522.37	13.3297
522.50	13.4464
522.62	13.2635
522.75	13.5056
522.88	13.5017
523.01	13.7539
523.14	13.2146
523.26	13.5956
523.39	13.1953
523.52	13.2068
523.65	13.4601
523.77	13.8597
523.90	13.5096
524.03	13.8385
524.16	13.9043
524.28	13.7241
524.41	13.8292
524.54	13.9642
524.67	13.8060
524.79	13.4978
524.92	13.8356
525.05	13.6272
525.18	13.7899
525.31	13.2640
525.43	13.7749
525.56	13.9746
525.69	13.7691
525.82	13.3672
525.94	14.1908
526.07	14.1696
526.20	13.3974
526.33	13.4873
526.45	13.8300
526.58	13.8200
526.71	13.6770
526.84	14.1931
526.96	14.3409
527.09	14.2823
527.22	14.4586
527.35	14.1134
527.47	14.1936
527.60	14.1495
527.73	13.9940
527.86	13.6305
527.98	14.0575
528.11	13.7027
528.24	14.0028
528.37	14.0495
528.49	13.8736
528.62	14.0949
528.75	14.2467
528.88	13.9178
529.00	14.1657
529.13	14.6530
529.26	14.0424
529.39	13.7907
529.51	14.2928
529.64	14.1857
529.77	13.9464
529.90	14.3195
530.02	14.7761
530.15	14.4602
530.28	14.3539
530.40	14.2544
530.53	14.3893
530.66	14.1688
530.79	14.2095
530.91	14.2392
531.04	14.4081
531.17	14.3441
531.30	14.4229
531.42	14.0548
531.55	14.2566
531.68	14.2882
531.81	14.2114
531.93	14.3564
532.06	14.7011
532.19	14.5257
532.31	14.3736
532.44	14.6159
532.57	14.5793
532.70	14.5004
532.82	14.3310
532.95	14.4684
533.08	14.4917
533.21	14.5487
533.33	14.7390
533.46	14.4843
533.59	14.5324
533.71	14.5270
533.84	14.4864
533.97	14.5614
534.10	15.0399
534.22	14.9856
534.35	14.6808
534.48	14.8584
534.61	14.9261
534.73	14.8556
534.86	14.7088
534.99	14.9121
535.11	14.7510
535.24	14.7546
535.37	15.0340
535.50	14.9640
535.62	14.8728
535.75	14.9191
535.88	14.7643
536.00	14.5883
536.13	14.9249
536.26	15.1946
536.39	14.9248
536.51	14.9750
536.64	15.0846
536.77	15.0677
536.89	14.8824
537.02	15.0630
537.15	14.9509
537.28	15.0070
537.40	14.8186
537.53	14.7730
537.66	14.9726
537.78	15.1785
537.91	15.0289
538.04	15.4078
538.17	15.3132
538.29	14.9369
538.42	14.7957
538.55	15.0987
538.67	14.9349
538.80	15.2418
538.93	15.2642
539.05	15.1963
539.18	14.9185
539.31	15.2428
539.44	15.0689
539.56	15.2380
539.69	15.5324
539.82	15.7075
539.94	15.0560
540.07	15.2168
540.20	15.2957
540.32	15.1400
540.45	14.7315
540.58	15.3305
540.71	15.4206
540.83	15.4690
540.96	15.1924
541.09	15.2709
541.21	15.4277
541.34	15.5347
541.47	15.3702
541.59	15.2517
541.72	15.5339
541.85	15.5580
541.98	15.4839
542.10	15.0987
542.23	15.5502
542.36	15.6108
542.48	15.4444
542.61	15.3230
542.74	15.8271
542.86	15.8677
542.99	15.7016
543.12	15.7405
543.24	15.6785
543.37	15.6979
543.50	15.6626
543.62	15.8525
543.75	15.6546
543.88	15.6248
544.01	15.5510
544.13	15.7134
544.26	15.7436
544.39	15.8691
544.51	15.8553
544.64	16.0202
544.77	15.8560
544.89	15.9603
545.02	15.6096
545.15	15.5986
545.27	15.5008
545.40	15.3804
545.53	15.4917
545.65	15.8944
545.78	16.0101
545.91	15.9119
546.03	16.1218
546.16	15.9431
546.29	15.8697
546.41	16.1045
546.54	16.1542
546.67	15.8510
546.79	16.0607
546.92	16.0202
547.05	15.9391
547.17	15.9306
547.30	16.3277
547.43	15.9927
547.56	16.1612
547.68	15.9546
547.81	16.1159
547.94	16.2174
548.06	16.0869
548.19	16.0434
548.32	16.3131
548.44	16.2659
548.57	15.9323
548.70	16.1374
548.82	16.2013
548.95	16.2144
549.08	15.9278
549.20	16.1185
549.33	16.2639
549.45	16.3458
549.58	16.0323
549.71	16.5937
549.83	16.5784
549.96	16.5435
550.09	16.3102
550.21	16.5450
550.34	16.3709
550.47	16.7297
550.59	16.6542
550.72	16.4296
550.85	16.6302
550.97	16.7950
551.10	16.2632
551.23	16.3007
551.35	16.7806
551.48	16.7740
551.61	16.4327
551.73	16.5426
551.86	16.7644
551.99	16.5078
552.11	16.3018
552.24	16.7038
552.37	16.9316
552.49	16.6152
552.62	16.7675
552.75	16.9608
552.87	16.6954
553.00	16.6616
553.12	16.7415
553.25	16.5285
553.38	16.4535
553.50	16.8167
553.63	16.7326
553.76	16.8449
553.88	17.1427
554.01	17.0939
554.14	16.6213
554.26	16.7536
554.39	16.7497
554.52	16.7739
554.64	16.8003
554.77	16.9801
554.89	16.9088
555.02	16.9885
555.15	16.9415
555.27	16.7352
555.40	16.8790
555.53	17.1709
555.65	16.9971
555.78	16.6887
555.91	17.2217
556.03	17.3257
556.16	16.9415
556.29	16.9346
556.41	17.4391
556.54	17.4046
556.66	16.9909
556.79	17.0846
556.92	17.4012
557.04	17.1963
557.17	17.0053
557.30	17.2765
557.42	17.2508
557.55	17.1571
557.67	17.1586
557.80	17.1184
557.93	17.3746
558.05	17.5032
558.18	17.3368
558.31	17.2867
558.43	17.3117
558.56	17.2785
558.68	17.3096
558.81	17.0454
558.94	17.2190
559.06	17.2980
559.19	17.2397
559.32	17.1525
559.44	17.5693
559.57	17.5442
559.69	17.4272
559.82	17.2836
559.95	17.5784
560.07	17.4726
560.20	17.2866
560.33	17.5126
560.45	17.3951
560.58	17.2672
560.70	17.4270
560.83	17.5072
560.96	17.2048
561.08	17.5388
561.21	17.7017
561.33	17.4996
561.46	17.6302
561.59	17.8009
561.71	17.8223
561.84	17.4845
561.97	17.7566
562.09	17.8834
562.22	17.7755
562.34	17.6288
562.47	17.8894
562.60	17.8505
562.72	17.7108
562.85	17.9253
562.97	18.0936
563.10	18.0775
563.23	17.9937
563.35	18.0109
563.48	17.8371
563.60	17.8970
563.73	17.9126
563.86	17.9647
563.98	18.0527
564.11	18.0252
564.23	17.9770
564.36	17.7785
564.49	17.8811
564.61	18.0407
564.74	18.1641
564.86	18.1074
564.99	18.2113
565.12	18.2428
565.24	18.1071
565.37	18.0993
565.49	18.1604
565.62	18.5545
565.75	18.1334
565.87	18.0556
566.00	18.3858
566.12	18.2923
566.25	18.0618
566.38	18.3955
566.50	18.5075
566.63	18.4166
566.75	18.5379
566.88	18.4281
567.01	18.4681
567.13	18.5474
567.26	18.3186
567.38	18.4188
567.51	18.4185
567.64	18.3181
567.76	18.3111
567.89	18.6047
568.01	18.3706
568.14	18.3986
568.26	18.6106
568.39	18.4548
568.52	18.3711
568.64	18.5374
568.77	18.6760
568.89	18.6787
569.02	18.8498
569.15	18.7579
569.27	18.6037
569.40	18.5545
569.52	18.5411
569.65	18.6336
569.77	18.9219
569.90	18.8030
570.03	18.8711
570.15	19.0100
570.28	19.0577
570.40	18.7596
570.53	18.9196
570.66	18.9286
570.78	18.9612
570.91	18.7277
571.03	18.8764
571.16	19.0364
571.28	19.0382
571.41	19.0192
571.54	19.0763
571.66	19.0653
571.79	19.1682
571.91	19.0589
572.04	18.8662
572.16	19.0328
572.29	19.0544
572.42	19.0604
572.54	19.1169
572.67	19.2953
572.79	19.2176
572.92	19.1469
573.04	19.1368
573.17	19.3537
573.29	19.2210
573.42	19.1398
573.55	19.2480
573.67	19.3583
573.80	19.2792
573.92	19.2594
574.05	19.3624
574.17	19.4380
574.30	19.3583
574.43	19.2928
574.55	19.4584
574.68	19.4357
574.80	19.4733
574.93	19.4692
575.05	19.5604
575.18	19.4729
575.30	19.4224
575.43	19.3985
575.56	19.4648
575.68	19.6350
575.81	19.6740
575.93	19.7250
576.06	19.8471
576.18	19.9758
576.31	19.5241
576.43	19.4927
576.56	19.6728
576.69	19.7068
576.81	19.5793
576.94	19.7905
577.06	19.9642
577.19	19.8818
577.31	19.6339
577.44	19.6296
577.56	19.5957
577.69	19.6343
577.82	19.9046
577.94	19.9636
578.07	19.7877
578.19	20.1207
578.32	20.2511
578.44	19.9492
578.57	20.1116
578.69	20.2892
578.82	20.1006
578.94	20.0043
579.07	20.1594
579.19	20.0630
579.32	20.1188
579.45	20.2996
579.57	20.2426
579.70	20.2918
579.82	20.1772
579.95	20.2675
580.07	20.1937
580.20	20.1782
580.32	20.0914
580.45	20.3128
580.57	20.2026
580.70	20.1477
580.82	20.4698
580.95	20.4001
581.08	20.4573
581.20	20.5022
581.33	20.5310
581.45	20.2012
581.58	20.6166
581.70	20.5065
581.83	20.3985
581.95	20.5106
582.08	20.6208
582.20	20.4109
582.33	20.5679
582.45	20.6122
582.58	20.6795
582.70	20.7709
582.83	20.6857
582.95	20.5724
583.08	20.6433
583.21	20.6678
583.33	20.8086
583.46	20.7635
583.58	20.7776
583.71	20.8427
583.83	20.7495
583.96	20.5677
584.08	20.6662
584.21	20.8383
584.33	21.0591
584.46	20.9367
584.58	20.8715
584.71	21.0628
584.83	21.2378
584.96	20.8706
585.08	20.9434
585.21	21.1084
585.33	20.9544
585.46	20.9301
585.58	21.1882
585.71	21.1658
585.83	21.1696
585.96	21.1735
586.08	20.8672
586.21	20.9723
586.33	21.0193
586.46	21.1158
586.59	21.0489
586.71	21.0912
586.84	21.1857
586.96	21.3637
587.09	21.0238
587.21	21.2403
587.34	21.5296
587.46	21.2524
587.59	21.2107
587.71	21.6438
587.84	21.6841
587.96	21.3935
588.09	21.4498
588.21	21.3692
588.34	21.3028
588.46	21.2149
588.59	21.4301
588.71	21.5796
588.84	21.4161
588.96	21.4237
589.09	21.6454
589.21	21.6899
589.34	21.5880
589.46	21.7058
589.59	21.8564
589.71	21.8233
589.84	21.7622
589.96	21.7286
590.09	21.9036
590.21	21.7647
590.34	21.8355
590.46	21.9236
590.59	21.8931
590.71	22.1459
590.84	22.1302
590.96	22.0029
591.09	22.0760
591.21	22.3682
591.34	22.0016
591.46	21.9732
591.59	21.9728
591.71	22.0805
591.83	22.0510
591.96	22.1533
592.08	22.2412
592.21	22.3681
592.33	22.2923
592.46	22.2132
592.58	22.2235
592.71	22.2812
592.83	22.0506
592.96	22.1584
593.08	22.3589
593.21	22.5126
593.33	22.5812
593.46	22.6707
593.58	22.4802
593.71	22.5292
593.83	22.2583
593.96	22.2451
594.08	22.4147
594.21	22.4622
594.33	22.4187
594.46	22.8833
594.58	22.8684
594.71	22.8842
594.83	22.4759
594.96	22.3948
595.08	22.4157
595.20	22.6153
595.33	22.2804
595.45	22.6963
595.58	22.8162
595.70	22.6232
595.83	22.3089
595.95	22.6763
596.08	22.8286
596.20	22.6328
596.33	22.7290
596.45	22.9740
596.58	22.8912
596.70	22.7730
596.83	22.8040
596.95	22.9171
597.08	22.8625
597.20	22.8591
597.32	22.9553
597.45	23.0105
597.57	22.9640
597.70	22.9519
597.82	23.0494
597.95	23.0407
598.07	23.1202
598.20	23.2220
598.32	23.1718
598.45	23.0044
598.57	23.1186
598.70	23.2174
598.82	22.9205
598.94	22.9462
599.07	23.1690
599.19	23.4294
599.32	23.2192
599.44	23.3548
599.57	23.5396
599.69	23.6993
599.82	23.2141
599.94	23.3610
600.07	23.6810
600.19	23.6736
600.31	23.2270
600.44	23.2080
600.56	23.3778
600.69	23.2287
600.81	23.2137
600.94	23.4493
601.06	23.5551
601.19	23.7016
601.31	23.5396
601.44	23.4968
601.56	23.6695
601.68	23.8554
601.81	23.5231
601.93	23.8507
602.06	24.0337
602.18	23.8205
602.31	23.7034
602.43	23.9109
602.56	23.7953
602.68	23.6062
602.80	23.8736
602.93	23.9212
603.05	23.8947
603.18	23.9632
603.30	24.0729
603.43	23.9188
603.55	23.9115
603.68	23.8547
603.80	23.8136
603.92	23.8031
604.05	23.9572
604.17	24.0157
604.30	24.0226
604.42	23.8689
604.55	23.9973
604.67	24.0030
604.79	24.0839
604.92	24.1684
605.04	24.3593
605.17	24.4012
605.29	24.2065
605.42	24.2192
605.54	24.2161
605.66	24.2184
605.79	24.1440
605.91	24.3700
606.04	24.2114
606.16	24.2434
606.29	24.2469
606.41	24.3748
606.53	24.3291
606.66	24.5072
606.78	24.5163
606.91	24.5181
607.03	24.5178
607.16	24.4600
607.28	24.3726
607.40	24.4687
607.53	24.6461
607.65	24.6329
607.78	24.4864
607.90	24.6893
608.03	24.6452
608.15	24.6776
608.27	24.6426
608.40	24.9679
608.52	24.8041
608.65	24.9459
608.77	24.7343
608.89	24.5218
609.02	24.5815
609.14	24.6055
609.27	24.5429
609.39	24.8487
609.52	25.1126
609.64	25.1005
609.76	25.1052
609.89	25.0040
610.01	24.9051
610.14	25.1036
610.26	24.9345
610.38	25.1508
610.51	25.4584
610.63	25.4025
610.76	25.1924
610.88	25.1834
611.01	25.0965
611.13	25.0829
611.25	25.1660
611.38	25.2528
611.50	25.4673
611.63	25.5721
611.75	25.4963
611.87	25.3025
612.00	25.3803
612.12	25.6416
612.25	25.5767
612.37	25.5198
612.49	25.5656
612.62	25.5570
612.74	25.3769
612.87	25.5972
612.99	25.5892
613.11	25.6408
613.24	25.5978
613.36	25.5798
613.49	25.5047
613.61	25.4277
613.73	25.7123
613.86	25.8114
613.98	25.7932
614.11	25.7004
614.23	25.8017
614.35	25.6851
614.48	25.7274
614.60	25.7721
614.72	25.8740
614.85	25.9633
614.97	26.0356
615.10	25.9834
615.22	25.8873
615.34	26.0245
615.47	26.0309
615.59	25.9504
615.72	26.1667
615.84	26.0666
615.96	25.9994
616.09	26.1736
616.21	26.2468
616.34	26.0530
616.46	26.3449
616.58	26.2953
616.71	26.1471
616.83	26.0545
616.95	26.1181
617.08	26.2598
617.20	26.4155
617.33	26.3657
617.45	26.4667
617.57	26.5968
617.70	26.5314
617.82	26.3306
617.95	26.4215
618.07	26.4119
618.19	26.2871
618.32	26.3603
618.44	26.6462
618.56	26.8166
618.69	26.7108
618.81	26.7873
618.94	26.6596
619.06	26.6084
619.18	26.5951
619.31	26.6513
619.43	26.5155
619.55	26.8212
619.68	26.8692
619.80	26.4613
619.92	26.4833
620.05	26.7855
620.17	26.6825
620.30	26.5049
620.42	26.9310
620.54	27.1110
620.67	26.9686
620.79	26.6957
620.91	26.8450
621.04	26.8358
621.16	26.9334
621.29	26.9412
621.41	27.1938
621.53	27.3350
621.66	27.2301
621.78	26.8813
621.90	27.0093
622.03	27.0789
622.15	26.9399
622.27	27.1187
622.40	27.3641
622.52	27.4763
622.64	27.4532
622.77	27.4068
622.89	27.3947
623.02	27.4856
623.14	27.3485
623.26	27.2303
623.39	27.4221
623.51	27.5979
623.63	27.4215
623.76	27.4075
623.88	27.6334
624.00	27.6102
624.13	27.5546
624.25	27.5879
624.37	27.5003
624.50	27.6294
624.62	27.7794
624.75	27.5757
624.87	27.8415
624.99	28.0667
625.12	27.6098
625.24	27.4327
625.36	27.6080
625.49	27.5599
625.61	27.3928
625.73	27.7375
625.86	27.8872
625.98	28.0123
626.10	27.9242
626.23	28.0829
626.35	28.1354
626.47	28.0822
626.60	28.0104
626.72	28.0438
626.84	28.2035
626.97	28.3077
627.09	28.0991
627.21	27.9287
627.34	28.2588
627.46	28.1844
627.58	27.9325
627.71	28.3992
627.83	28.4828
627.95	27.9871
628.08	28.0419
628.20	28.3552
628.32	28.2604
628.45	28.3681
628.57	28.6140
628.69	28.4165
628.82	28.3904
628.94	28.4258
629.06	28.3421
629.19	28.5865
629.31	28.7286
629.43	28.6353
629.56	28.3790
629.68	28.6377
629.80	28.6283
629.93	28.7417
630.05	28.7848
630.17	29.1158
630.30	28.9801
630.42	29.0022
630.54	29.1375
630.67	28.8354
630.79	28.8108
630.91	28.9887
631.04	28.9020
631.16	28.8788
631.28	29.3798
631.41	29.2377
631.53	29.1035
631.65	29.1333
631.78	29.0673
631.90	29.2487
632.02	29.1820
632.14	29.2684
632.27	29.4189
632.39	29.1929
632.51	28.9340
632.64	29.2458
632.76	29.2381
632.88	29.2223
633.01	29.4909
633.13	29.0973
633.25	29.2233
633.38	29.3812
633.50	29.3966
633.62	29.5293
633.75	29.7668
633.87	29.6347
633.99	29.6388
634.11	29.5645
634.24	29.5060
634.36	29.6980
634.48	29.5540
634.61	29.6094
634.73	29.7671
634.85	29.8315
634.98	29.9792
635.10	29.7826
635.22	29.7584
635.35	29.8948
635.47	29.8496
635.59	29.7151
635.71	30.1467
635.84	30.0352
635.96	29.9884
636.08	29.9525
636.21	29.9481
636.33	30.0304
636.45	30.3266
636.58	30.0251
636.70	30.1504
636.82	30.5026
636.94	30.3251
637.07	30.0651
637.19	30.2585
637.31	30.4438
637.44	30.2194
637.56	30.2757
637.68	30.3763
637.81	30.6983
637.93	30.4505
638.05	30.1368
638.17	30.3185
638.30	30.4633
638.42	30.2085
638.54	30.2615
638.67	30.6245
638.79	30.5337
638.91	30.4897
639.03	30.4997
639.16	30.5797
639.28	30.6769
639.40	30.5359
639.53	30.5590
639.65	30.6853
639.77	30.6524
639.89	30.5541
640.02	30.8963
640.14	30.7261
640.26	30.7733
640.39	30.8174
640.51	30.7436
640.63	30.6137
640.75	30.8942
640.88	30.9277
641.00	30.6477
641.12	30.9748
641.24	31.2471
641.37	30.8395
641.49	30.9046
641.61	31.2769
641.74	31.2887
641.86	31.0442
641.98	31.3684
642.10	31.3882
642.23	31.3968
642.35	31.2776
642.47	31.2290
642.60	31.4694
642.72	31.3945
642.84	31.4128
642.96	31.4867
643.09	31.6789
643.21	31.6476
643.33	31.5357
643.45	31.3467
643.58	31.4515
643.70	31.4975
643.82	31.4287
643.94	31.5437
644.07	31.7475
644.19	31.5707
644.31	31.5315
644.44	31.5573
644.56	31.6028
644.68	31.6742
644.80	31.8297
644.93	31.7794
645.05	31.7657
645.17	31.8042
645.29	31.8582
645.42	31.6933
645.54	31.7464
645.66	31.8708
645.78	31.7901
645.91	31.5246
646.03	31.7967
646.15	31.9020
646.27	31.7919
646.40	31.7411
646.52	32.0639
646.64	32.1806
646.76	32.0177
646.89	32.0068
647.01	32.0339
647.13	32.1476
647.25	32.0464
647.38	32.0301
647.50	32.3244
647.62	32.6711
647.74	32.4371
647.87	32.2240
647.99	32.4494
648.11	32.4862
648.23	32.1693
648.36	32.3098
648.48	32.6527
648.60	32.8474
648.72	32.4857
648.85	32.6736
648.97	32.8204
649.09	32.7190
649.21	32.5672
649.34	32.8263
649.46	32.8719
649.58	32.9285
649.70	32.8311
649.83	32.7893
649.95	32.6940
650.07	32.7565
650.19	32.5384
650.32	32.5641
650.44	32.7020
650.56	32.8610
650.68	32.9309
650.81	32.8825
650.93	33.1024
651.05	33.0497
651.17	33.0588
651.29	32.9739
651.42	33.3169
651.54	33.4728
651.66	33.4993
651.78	33.1031
651.91	33.1651
652.03	33.1957
652.15	32.9664
652.27	33.0570
652.40	33.4892
652.52	33.6498
652.64	33.2219
652.76	33.2695
652.88	33.3797
653.01	33.6491
653.13	33.4704
653.25	33.6605
653.37	33.6727
653.50	33.8019
653.62	33.3929
653.74	33.3887
653.86	33.7207
653.98	33.8917
654.11	33.8276
654.23	33.7385
654.35	33.9248
654.47	33.9221
654.60	34.0312
654.72	33.7955
654.84	34.1436
654.96	34.1206
655.08	34.0978
655.21	33.8382
655.33	34.0237
655.45	34.1332
655.57	34.0980
655.70	33.8416
655.82	33.9531
655.94	34.2248
656.06	34.0146
656.18	33.9834
656.31	34.3292
656.43	34.4331
656.55	34.2081
656.67	34.1582
656.79	34.3760
656.92	34.4819
657.04	34.1536
657.16	34.2343
657.28	34.4468
657.40	34.5324
657.53	34.3011
657.65	34.4281
657.77	34.5100
657.89	34.7015
658.01	34.4480
658.14	34.5371
658.26	34.9025
658.38	34.9348
658.50	34.4207
658.62	34.5481
658.75	34.5891
658.87	34.7803
658.99	34.7274
659.11	34.9113
659.23	35.0108
659.36	35.0516
659.48	34.7943
659.60	34.8427
659.72	35.1038
659.84	35.1297
659.97	34.8138
660.09	34.6695
660.21	34.8229
660.33	35.0262
660.45	34.9282
660.58	35.1311
660.70	35.4430
660.82	35.2712
660.94	34.9513
661.06	35.0062
661.19	35.2390
661.31	35.1878
661.43	35.1472
661.55	35.1909
661.67	35.4328
661.80	35.4320
661.92	35.4377
662.04	35.4355
662.16	35.7287
662.28	35.6306
662.40	35.5051
662.53	35.5891
662.65	35.5907
662.77	35.6003
662.89	35.7313
663.01	35.8366
663.14	35.7406
663.26	36.0282
663.38	35.9564
663.50	35.7154
663.62	35.8238
663.74	35.9589
663.87	35.8535
663.99	35.5552
664.11	35.8420
664.23	35.9577
664.35	35.8530
664.48	35.9162
664.60	36.4300
664.72	36.4107
664.84	36.1660
664.96	36.2767
665.08	36.2081
665.21	36.3607
665.33	36.3555
665.45	36.2992
665.57	36.3053
665.69	36.5227
665.81	36.3517
665.94	36.2319
666.06	36.4714
666.18	36.6607
666.30	36.4496
666.42	36.3066
666.54	36.5606
666.67	36.3983
666.79	36.2002
666.91	36.4632
667.03	36.5351
667.15	36.5178
667.27	36.7805
667.40	36.6040
667.52	36.5341
667.64	36.7843
667.76	36.5828
667.88	36.3599
668.00	36.6761
668.13	36.7556
668.25	36.6568
668.37	36.6799
668.49	37.0089
668.61	37.0975
668.73	37.0195
668.85	36.9746
668.98	37.2773
669.10	37.1960
669.22	36.9233
669.34	37.1082
669.46	37.1208
669.58	36.9716
669.71	37.0910
669.83	37.2825
669.95	37.2013
670.07	37.2581
670.19	37.4694
670.31	37.4512
670.43	37.3864
670.56	37.4315
670.68	37.6139
670.80	37.3434
670.92	37.4182
671.04	37.7115
671.16	37.7708
671.28	37.5076
671.41	37.8393
671.53	38.0378
671.65	37.5656
671.77	37.3278
671.89	37.5356
672.01	37.6380
672.13	37.3878
672.26	37.9391
672.38	38.1018
672.50	38.0303
672.62	37.8804
672.74	38.0240
672.86	37.9263
672.98	38.0603
673.11	37.9755
673.23	38.0409
673.35	38.0203
673.47	38.2557
673.59	38.2044
673.71	38.0087
673.83	37.9934
673.96	38.1923
674.08	37.9406
674.20	37.9937
674.32	38.4173
674.44	38.4476
674.56	38.1967
674.68	38.2301
674.80	38.3831
674.93	38.4488
675.05	38.4144
675.17	38.4636
675.29	38.6146
675.41	38.6250
675.53	38.6872
675.65	38.5871
675.77	38.7957
675.90	39.0267
676.02	38.7945
676.14	38.5216
676.26	38.8037
676.38	38.7086
676.50	38.5594
676.62	38.9028
676.74	39.0727
676.87	38.8618
676.99	38.8469
677.11	38.7234
677.23	38.6978
677.35	38.9498
677.47	39.0677
677.59	39.0383
677.71	39.1478
677.83	39.0163
677.96	38.9148
678.08	39.0917
678.20	39.3206
678.32	39.4345
678.44	39.1257
678.56	39.0999
678.68	39.2372
678.80	39.2072
678.93	39.1032
679.05	39.3689
679.17	39.4850
679.29	39.4377
679.41	39.5085
679.53	39.5498
679.65	39.8038
679.77	39.7260
679.89	39.5204
680.01	39.7594
680.14	39.9435
680.26	39.8192
680.38	39.7348
680.50	39.9170
680.62	39.7605
680.74	39.7579
680.86	39.9381
680.98	39.8452
681.10	39.9693
681.22	40.0838
681.35	40.1860
681.47	39.7346
681.59	40.0865
681.71	40.1751
681.83	39.8457
681.95	39.5245
682.07	40.0105
682.19	40.1228
682.31	39.8013
682.43	40.1665
682.56	40.4620
682.68	40.4213
682.80	40.2871
682.92	40.5669
683.04	40.5640
683.16	40.3474
683.28	40.4093
683.40	40.4067
683.52	40.4135
683.64	40.3906
683.76	40.5881
683.89	40.3989
684.01	40.4956
684.13	40.4905
684.25	40.3466
684.37	40.4304
684.49	40.5502
684.61	40.6315
684.73	40.8141
684.85	40.6861
684.97	40.8169
685.09	41.1596
685.21	40.8142
685.34	40.7704
685.46	41.1405
685.58	40.8256
685.70	40.8179
685.82	41.2710
685.94	41.2475
686.06	41.2177
686.18	41.4801
686.30	41.2602
686.42	41.3714
686.54	41.1420
686.66	41.1988
686.79	40.9049
686.91	40.9984
687.03	41.0630
687.15	41.4427
687.27	41.2153
687.39	41.5356
687.51	41.5724
687.63	41.3471
687.75	40.9826
687.87	41.4143
687.99	41.3724
688.11	41.2007
688.23	41.2456
688.35	41.6370
688.48	41.5012
688.60	41.4951
688.72	41.7058
688.84	41.9098
688.96	41.9501
689.08	41.4864
689.20	41.4987
689.32	41.7203
689.44	41.7156
689.56	41.5699
689.68	42.0432
689.80	42.1257
689.92	41.8844
690.04	41.7888
690.16	41.8138
690.28	42.0367
690.41	41.9608
690.53	41.8422
690.65	41.7408
690.77	41.7735
690.89	41.6094
691.01	41.7634
691.13	41.8997
691.25	42.1804
691.37	42.4607
691.49	42.0754
691.61	41.9981
691.73	42.2804
691.85	42.3408
691.97	41.9548
692.09	42.2370
692.21	42.2947
692.33	42.4088
692.45	42.2973
692.57	42.3323
692.70	42.7140
692.82	42.8140
692.94	42.5117
693.06	42.5757
693.18	42.8941
693.30	42.5543
693.42	42.4908
693.54	42.6567
693.66	42.8140
693.78	42.6996
693.90	42.8542
694.02	43.0737
694.14	43.0492
694.26	42.7609
694.38	42.7058
694.50	42.8913
694.62	42.8924
694.74	42.9097
694.86	43.0610
694.98	43.0659
695.10	43.1016
695.22	43.0922
695.34	43.1751
695.46	43.1450
695.58	43.3927
695.71	43.3844
695.83	43.1055
695.95	43.2630
696.07	43.5217
696.19	43.6432
696.31	43.2964
696.43	43.5296
696.55	43.5301
696.67	43.4065
696.79	43.3345
696.91	43.2936
697.03	43.3776
697.15	43.4484
697.27	43.2215
697.39	43.1611
697.51	43.5208
697.63	43.2637
697.75	43.1604
697.87	43.5755
697.99	43.5924
698.11	43.6097
698.23	43.8965
698.35	43.8778
698.47	43.8873
698.59	43.6930
698.71	43.8316
698.83	43.8636
698.95	43.9157
699.07	43.7719
699.19	44.1466
699.31	43.9922
699.43	44.0719
699.55	44.1335
699.67	44.2893
699.79	44.1506
699.91	44.1776
700.03	44.1475
700.15	44.0698
700.27	44.1417
700.39	44.1238
700.51	44.2126
700.63	44.1223
700.75	44.3469
700.87	44.2355
700.99	44.5011
701.11	44.5376
701.24	44.4976
701.36	44.3797
701.48	44.6550
701.60	44.3130
701.72	44.4229
701.84	44.7717
701.96	44.6933
702.08	44.3591
702.20	44.5967
702.32	44.6466
702.44	44.6659
702.56	44.8851
702.68	44.7974
702.80	44.7396
702.92	44.7839
703.04	44.7318
703.16	44.8268
703.28	45.1171
703.40	45.2107
703.52	45.1000
703.64	45.0991
703.76	45.0668
703.88	45.1469
704.00	45.0540
704.12	45.1262
704.24	45.0830
704.36	45.1876
704.48	45.1318
704.60	45.3403
704.72	45.1364
704.84	45.1070
704.96	45.1483
705.07	45.2584
705.19	45.1371
705.31	45.5175
705.43	45.5751
705.55	45.4405
705.67	45.6254
705.79	45.7936
705.91	45.5609
706.03	45.6300
706.15	45.7374
706.27	45.5715
706.39	45.7205
706.51	45.8873
706.63	45.9379
706.75	45.7429
706.87	45.8452
706.99	45.9375
707.11	46.0046
707.23	46.0790
707.35	46.1990
707.47	46.0464
707.59	46.0101
707.71	45.9777
707.83	46.1198
707.95	45.8642
708.07	45.9544
708.19	46.1571
708.31	46.1459
708.43	45.8679
708.55	46.2616
708.67	46.2260
708.79	45.9251
708.91	45.8398
709.03	46.0799
709.15	45.9910
709.27	46.0509
709.39	45.9845
709.51	46.0490
709.63	46.2249
709.75	46.1728
709.87	46.2253
709.99	46.4803
710.11	46.8484
710.23	46.3448
710.35	46.4734
710.47	46.5127
710.58	46.3201
710.70	46.2004
710.82	46.5792
710.94	46.5708
711.06	46.7037
711.18	46.6930
711.30	46.5469
711.42	46.5021
711.54	46.8742
711.66	46.7310
711.78	46.5910
711.90	46.8589
712.02	47.2014
712.14	46.7408
712.26	46.5600
712.38	46.9573
712.50	46.9438
712.62	46.7457
712.74	46.6673
712.86	47.0247
712.98	47.0816
713.10	46.8536
713.22	46.7829
713.34	47.0468
713.45	47.0602
713.57	46.9626
713.69	47.0232
713.81	47.1921
713.93	47.6228
714.05	47.3603
714.17	47.2503
714.29	47.5855
714.41	47.4568
714.53	47.1839
714.65	47.6386
714.77	47.4851
714.89	47.3467
715.01	47.4536
715.13	47.5108
715.25	47.4676
715.37	47.6760
715.49	47.6413
715.61	47.4597
715.72	47.5415
715.84	47.5774
715.96	47.5249
716.08	47.4453
716.20	47.7332
716.32	47.7087
716.44	47.5966
716.56	47.5244
716.68	47.6045
716.80	47.6618
716.92	47.6348
717.04	47.6983
717.16	48.1181
717.28	48.0887
717.40	47.9705
717.52	47.9441
717.63	47.8930
717.75	47.8218
717.87	48.0740
717.99	47.9063
718.11	47.8356
718.23	47.8178
718.35	48.0502
718.47	47.9112
718.59	48.1277
718.71	48.1010
718.83	48.3688
718.95	48.1567
719.07	48.2283
719.19	48.2650
719.30	48.4959
719.42	48.3862
719.54	48.4317
719.66	48.7200
719.78	48.7768
719.90	48.8409
720.02	48.7583
720.14	48.7897
720.26	48.6319
720.38	48.9020
720.50	48.7298
720.62	48.9630
720.74	48.8786
720.85	48.5277
720.97	48.4624
721.09	48.4723
721.21	48.3473
721.33	48.4777
721.45	48.8178
721.57	48.9751
721.69	48.8388
721.81	48.6657
721.93	48.8261
722.05	49.0371
722.16	48.8092
722.28	48.9245
722.40	48.9634
722.52	49.2122
722.64	49.0742
722.76	48.9796
722.88	49.3515
723.00	49.5285
723.12	49.5092
723.24	49.2688
723.36	49.2490
723.47	49.1564
723.59	49.1198
723.71	48.9695
723.83	49.2625
723.95	49.2355
724.07	48.8550
724.19	49.1086
724.31	49.4179
724.43	49.5675
724.55	49.1486
724.66	49.7354
724.78	49.8397
724.90	49.4237
725.02	49.2149
725.14	50.1122
725.26	49.9616
725.38	49.6765
725.50	49.7417
725.62	49.9605
725.74	50.1288
725.85	50.3163
725.97	49.1714
726.09	49.4683
726.21	49.7540
726.33	49.5355
726.45	49.4216
726.57	50.7569
726.69	50.5039
726.81	50.1081
726.92	49.8731
727.04	49.8991
727.16	49.9710
727.28	50.1025
727.40	49.7780
727.52	49.7002
727.64	49.7473
727.76	49.9546
727.88	49.9888
727.99	50.3422
728.11	50.6292
728.23	50.6791
728.35	50.4378
728.47	50.2783
728.59	50.5041
728.71	50.4762
728.83	50.2602
728.94	50.1787
729.06	50.3774
729.18	50.3747
729.30	50.2277
729.42	50.2313
729.54	50.5221
729.66	50.3837
729.78	50.2387
729.90	50.6521
730.01	50.7747
730.13	50.6699
730.25	50.6213
730.37	50.6750
730.49	50.4347
730.61	50.4599
730.73	50.5003
730.84	50.6346
730.96	50.8835
731.08	51.1152
731.20	50.6787
731.32	50.8512
731.44	51.0925
731.56	50.7509
731.68	50.6130
731.79	51.2135
731.91	50.9511
732.03	50.8747
732.15	51.0891
732.27	50.8976
732.39	51.0751
732.51	51.3693
732.62	51.0339
732.74	51.0408
732.86	51.4021
732.98	51.1732
733.10	50.7809
733.22	51.3016
733.34	51.2185
733.45	51.1150
733.57	51.0992
733.69	51.3067
733.81	51.2485
733.93	51.2849
734.05	51.2725
734.17	51.4330
734.28	51.7554
734.40	51.7572
734.52	51.5134
734.64	51.6024
734.76	51.8773
734.88	51.7100
735.00	51.3219
735.11	51.8502
735.23	52.1692
735.35	51.7053
735.47	51.7527
735.59	52.1409
735.71	51.9442
735.83	51.6725
735.94	51.8412
736.06	51.7532
736.18	51.7373
736.30	52.0422
736.42	52.0925
736.54	51.6018
736.65	51.7301
736.77	51.8583
736.89	51.1920
737.01	51.4976
737.13	52.2318
737.25	52.1096
737.36	51.9496
737.48	52.6080
737.60	52.3008
737.72	51.9655
737.84	52.2164
737.96	52.1071
738.08	52.1440
738.19	52.1374
738.31	52.4222
738.43	52.2839
738.55	52.6542
738.67	52.5643
738.79	52.5653
738.90	52.7289
739.02	52.8846
739.14	52.6250
739.26	52.4639
739.38	52.6772
739.50	52.5447
739.61	52.4725
739.73	52.5174
739.85	52.4247
739.97	52.6471
740.09	52.6498
740.20	52.5502
740.32	52.9244
740.44	53.1937
740.56	52.8707
740.68	52.9277
740.80	52.8977
740.91	52.6002
741.03	52.7309
741.15	52.6464
741.27	52.6737
741.39	52.7096
741.51	52.8835
741.62	52.8675
741.74	53.1065
741.86	53.0808
741.98	53.2258
742.10	53.1595
742.21	53.2552
742.33	52.8428
742.45	52.8870
742.57	52.8079
742.69	52.8904
742.80	52.8398
742.92	53.2391
743.04	52.9142
743.16	53.2289
743.28	53.2373
743.40	53.2724
743.51	53.2107
743.63	53.5758
743.75	53.3669
743.87	53.3357
743.99	53.2763
744.10	53.4806
744.22	53.3121
744.34	53.1881
744.46	53.4230
744.58	53.1825
744.69	53.0858
744.81	53.5428
744.93	53.4749
745.05	53.0403
745.17	53.3906
745.28	53.4729
745.40	53.2883
745.52	53.4884
745.64	53.9314
745.76	54.1323
745.87	53.9698
745.99	54.1208
746.11	54.3504
746.23	54.3939
746.35	53.7277
746.46	53.7949
746.58	53.6391
746.70	53.5501
746.82	53.5029
746.94	54.0778
747.05	54.3110
747.17	54.4331
747.29	53.9041
747.41	54.0974
747.53	54.0418
747.64	53.7062
747.76	53.4088
747.88	54.0463
748.00	53.9604
748.12	54.0203
748.23	54.1526
748.35	54.3022
748.47	54.4039
748.59	54.3448
748.70	54.3145
748.82	54.3732
748.94	54.3915
749.06	54.3922
749.18	54.2218
749.29	54.2205
749.41	54.3817
749.53	54.3541
749.65	54.4366
749.76	54.6498
749.88	54.5145
750.00	54.2977
750.12	54.4560
750.24	54.4748
750.35	54.1836
750.47	54.3764
750.59	54.3206
750.71	54.5736
750.82	54.5273
750.94	54.8155
751.06	54.8027
751.18	54.9710
751.30	54.6325
751.41	54.6471
751.53	54.7940
751.65	54.6603
751.77	54.5635
751.88	55.0608
752.00	54.7961
752.12	54.6472
752.24	54.8892
752.35	54.9919
752.47	54.4736
752.59	54.9647
752.71	54.7477
752.83	54.9518
752.94	55.0212
753.06	55.2441
753.18	55.1632
753.30	55.4761
753.41	55.2656
753.53	55.2436
753.65	55.4885
753.77	55.4036
753.88	55.3349
754.00	55.1007
754.12	55.4184
754.24	55.7269
754.35	55.5820
754.47	55.5340
754.59	55.9239
754.71	55.8844
754.82	55.1937
754.94	55.2977
755.06	55.3981
755.18	55.4245
755.29	55.1441
755.41	55.4339
755.53	55.5102
755.65	55.5413
755.76	55.0750
755.88	55.2366
756.00	55.5965
756.12	55.6314
756.23	55.2560
756.35	55.7044
756.47	55.9797
756.59	55.6674
756.70	55.7937
756.82	56.1406
756.94	56.0512
757.06	55.9524
757.17	56.1902
757.29	55.9481
757.41	56.0909
757.53	56.1586
757.64	55.9703
757.76	55.6623
757.88	55.8701
758.00	56.1379
758.11	56.0902
758.23	56.2708
758.35	56.2428
758.47	56.2712
758.58	56.0122
758.70	56.2257
758.82	56.0261
758.94	56.3404
759.05	56.3544
759.17	56.0468
759.29	56.0365
759.40	56.3772
759.52	56.1694
759.64	55.9719
759.76	56.3259
759.87	56.3726
759.99	56.4348
760.11	56.5230
760.23	56.6800
760.34	56.8708
760.46	56.9377
760.58	56.6545
760.70	56.6928
760.81	56.7243
760.93	56.6412
761.05	56.7401
761.16	56.9894
761.28	57.2322
761.40	56.9439
761.52	56.7972
761.63	56.6541
761.75	56.7202
761.87	56.4387
761.98	56.8164
762.10	56.8218
762.22	57.1269
762.34	56.9482
762.45	56.4706
762.57	56.6481
762.69	56.7288
762.81	56.7740
762.92	56.7708
763.04	57.0663
763.16	57.0424
763.27	57.0906
763.39	56.6550
763.51	56.8459
763.63	57.4514
763.74	57.4243
763.86	57.5195
763.98	57.4341
764.09	57.4963
764.21	57.2374
764.33	57.1252
764.44	57.0889
764.56	57.3670
764.68	57.5471
764.80	57.1803
764.91	57.2515
765.03	57.3610
765.15	57.5435
765.26	57.0185
765.38	57.3210
765.50	57.2547
765.62	57.0833
765.73	57.0670
765.85	57.2361
765.97	57.4427
766.08	57.6624
766.20	57.7705
766.32	57.5146
766.43	57.6765
766.55	57.5881
766.67	57.5068
766.79	57.6628
766.90	57.9613
767.02	58.1156
767.14	57.4715
767.25	57.4306
767.37	57.5041
767.49	57.1275
767.60	56.8333
767.72	57.6579
767.84	57.9671
767.95	57.7174
768.07	57.8983
768.19	58.1001
768.31	58.0586
768.42	57.8898
768.54	57.7806
768.66	57.8503
768.77	58.0321
768.89	57.9398
769.01	57.6827
769.12	57.9413
769.24	58.0402
769.36	57.9691
769.47	57.7930
769.59	57.9829
769.71	58.0418
769.82	58.3431
769.94	58.1385
770.06	58.5547
770.17	58.5180
770.29	58.3080
770.41	58.2298
770.53	58.3479
770.64	58.0354
770.76	58.0106
770.88	58.5762
770.99	58.4788
771.11	58.6729
771.23	58.5989
771.34	58.5941
771.46	58.3596
771.58	58.2979
771.69	58.0342
771.81	58.6233
771.93	58.5817
772.04	58.5726
772.16	58.4260
772.28	58.6373
772.39	58.1777
772.51	58.5577
772.63	58.5782
772.74	58.0860
772.86	58.3327
772.98	58.6162
773.09	58.3844
773.21	58.2870
773.33	59.1031
773.44	58.6999
773.56	58.3623
773.68	58.6630
773.79	58.8033
773.91	58.7251
774.03	58.5369
774.14	58.9456
774.26	59.1036
774.38	58.9156
774.49	58.6944
774.61	59.0507
774.73	59.0089
774.84	58.6761
774.96	58.8970
775.08	59.0165
775.19	58.9872
775.31	59.0395
775.43	59.3438
775.54	58.9208
775.66	59.2560
775.77	59.0964
775.89	58.7694
776.01	58.4843
776.12	59.1399
776.24	59.0754
776.36	59.0375
776.47	58.9762
776.59	59.3889
776.71	59.3867
776.82	59.2800
776.94	59.2700
777.06	59.9296
777.17	59.9813
777.29	59.6993
777.41	59.8025
777.52	59.9417
777.64	60.1176
777.75	59.9970
777.87	59.8550
777.99	59.8030
778.10	60.0339
778.22	59.7107
778.34	59.3979
778.45	59.6214
778.57	59.7508
778.69	59.3341
778.80	59.3664
778.92	59.7394
779.04	59.7186
779.15	59.4549
779.27	59.5858
779.38	59.7213
779.50	59.5677
779.62	60.0335
779.73	59.5932
779.85	60.0120
779.97	60.1355
780.08	59.9505
780.20	59.4411
780.31	60.2092
780.43	60.2916
780.55	59.8422
780.66	59.4768
780.78	59.9745
780.90	60.1280
781.01	60.1247
781.13	59.8818
781.25	60.6611
781.36	60.4774
781.48	59.8564
781.59	59.5589
781.71	60.2705
781.83	60.3956
781.94	59.9011
782.06	60.3729
782.18	61.1842
782.29	60.7240
782.41	60.3446
782.52	60.8554
782.64	60.9740
782.76	60.9900
782.87	60.7042
782.99	60.1703
783.10	60.4634
783.22	60.3747
783.34	59.6898
783.45	60.3267
783.57	60.7744
783.69	60.0316
783.80	59.8926
783.92	60.1725
784.03	59.9775
784.15	60.2097
784.27	60.5296
784.38	60.4588
784.50	60.4259
784.61	60.5557
784.73	60.7103
784.85	60.4571
784.96	60.4119
785.08	60.3444
785.19	60.5899
785.31	60.5957
785.43	60.6193
785.54	60.6996
785.66	60.4867
785.77	60.7033
785.89	60.6353
786.01	60.9849
786.12	60.8045
786.24	61.0208
786.35	60.7390
786.47	61.0047
786.59	60.9570
786.70	61.4057
786.82	61.4652
786.93	61.3569
787.05	61.2201
787.17	61.4641
787.28	61.2740
787.40	61.1832
787.51	61.5968
787.63	61.2795
787.75	60.8991
787.86	61.2113
787.98	61.3826
788.09	60.8047
788.21	61.0115
788.33	61.7128
788.44	61.3865
788.56	61.5891
788.67	61.7463
788.79	61.9873
788.91	61.9421
789.02	61.6168
789.14	61.2311
789.25	61.4933
789.37	61.2936
789.48	61.1953
789.60	61.4685
789.72	61.3258
789.83	61.5256
789.95	61.8414
790.06	61.2757
790.18	61.3148
790.30	61.5771
790.41	61.3135
790.53	61.1614
790.64	61.3742
790.76	61.5671
790.87	61.4816
790.99	61.5209
791.11	61.5589
791.22	61.5559
791.34	61.6244
791.45	61.9936
791.57	62.1565
791.68	61.6894
791.80	61.8987
791.92	62.1304
792.03	62.0033
792.15	61.9312
792.26	62.1117
792.38	62.0620
792.49	62.0626
792.61	62.2870
792.73	62.8504
792.84	64.7045
792.96	59.8854
793.07	60.3610
793.19	61.2558
793.30	61.3589
793.42	60.2718
793.54	64.1585
793.65	63.7927
793.77	63.1749
793.88	62.3076
794.00	61.9337
794.11	62.6965
794.23	62.9002
794.34	63.0630
794.46	62.4455
794.58	61.8833
794.69	62.8533
794.81	63.0221
794.92	61.6737
795.04	62.0671
795.15	62.4500
795.27	62.0929
795.39	61.6883
795.50	62.5648
795.62	63.1134
795.73	63.0879
795.85	62.3877
795.96	62.5967
796.08	62.6344
796.19	62.7403
796.31	62.9233
796.42	63.0482
796.54	63.1703
796.66	63.6494
796.77	62.8443
796.89	63.3356
797.00	63.8809
797.12	63.2996
797.23	62.5749
797.35	62.9161
797.46	62.3208
797.58	62.3434
797.69	62.5267
797.81	62.8632
797.93	63.2320
798.04	62.9093
798.16	62.9194
798.27	63.1117
798.39	63.2504
798.50	63.3701
798.62	63.1641
798.73	63.2269
798.85	63.1701
798.96	62.6016
799.08	62.4324
799.19	63.2240
799.31	63.4669
799.43	63.3547
799.54	63.2118
799.66	63.3478
799.77	63.8706
799.89	63.5307
800.00	63.0479
800.12	62.9236
800.23	63.2831
800.35	63.1275
800.46	62.7690
800.58	63.1959
800.69	63.9118
800.81	63.0055
800.92	62.8192
801.04	63.3726
801.16	63.5200
801.27	63.3189
801.39	63.7893
801.50	63.1083
801.62	62.6144
801.73	63.2018
801.85	63.1394
801.96	62.7774
802.08	63.7633
802.19	64.2550
802.31	63.1170
802.42	63.0957
802.54	63.8700
802.65	63.0704
802.77	63.5239
802.88	63.4579
803.00	63.9500
803.11	63.7751
803.23	63.9756
803.34	63.7132
803.46	64.0016
803.57	64.1591
803.69	63.6853
803.80	64.0890
803.92	63.9100
804.03	64.1059
804.15	63.6063
804.26	64.3088
804.38	63.9314
804.50	63.5673
804.61	63.6042
804.73	64.3398
804.84	64.0038
804.96	64.3962
805.07	64.5778
805.19	64.4904
805.30	64.1037
805.42	64.1481
805.53	64.1902
805.65	64.5332
805.76	64.6128
805.88	64.2258
805.99	64.4235
806.11	64.2269
806.22	64.0191
806.34	64.2828
806.45	64.1163
806.57	64.3241
806.68	64.1398
806.80	63.9678
806.91	64.3154
807.03	64.9789
807.14	64.7296
807.26	64.5366
807.37	65.1639
807.49	64.4538
807.60	63.5979
807.72	63.6556
807.83	64.1032
807.95	63.5333
808.06	63.4239
808.17	64.2500
808.29	63.8390
808.40	63.3596
808.52	63.1034
808.63	63.5345
808.75	63.0642
808.86	63.3766
808.98	63.5703
809.09	64.0869
809.21	63.9795
809.32	64.9975
809.44	64.7549
809.55	65.3780
809.67	64.9415
809.78	64.5144
809.90	64.0776
810.01	63.5028
810.13	63.4767
810.24	64.1507
810.36	64.7996
810.47	64.2281
810.59	64.3017
810.70	64.2905
810.82	64.1658
810.93	64.2070
811.05	64.7556
811.16	65.1681
811.27	63.9593
811.39	64.2698
811.50	65.1640
811.62	64.6427
811.73	64.7753
811.85	65.5629
811.96	65.1786
812.08	64.3511
812.19	64.9645
812.31	65.7769
812.42	65.8085
812.54	65.4823
812.65	65.4702
812.77	65.2105
812.88	64.5506
813.00	65.3795
813.11	66.0540
813.22	66.5494
813.34	65.9734
813.45	65.4258
813.57	65.3872
813.68	66.1026
813.80	66.1512
813.91	65.6067
814.03	66.7216
814.14	66.1211
814.26	64.9290
814.37	64.9040
814.49	66.3513
814.60	65.5125
814.71	66.0268
814.83	66.1745
814.94	65.3176
815.06	65.5293
815.17	66.8398
815.29	64.8663
815.40	65.1191
815.52	66.1447
815.63	65.4030
815.75	65.4420
815.86	66.9088
815.97	66.1300
816.09	65.2750
816.20	66.9404
816.32	65.9600
816.43	66.5065
816.55	65.7091
816.66	66.5061
816.78	65.4974
816.89	66.1507
817.00	66.4189
817.12	66.9501
817.23	66.4700
817.35	67.2210
817.46	65.2888
817.58	64.9777
817.69	65.9074
817.81	65.7229
817.92	64.5828
818.03	66.7125
818.15	66.9491
818.26	66.7759
818.38	70.8424
818.49	76.6934
818.61	55.2494
818.72	55.8379
818.83	62.0666
818.95	59.0819
819.06	52.2126
819.18	75.0197
819.29	73.4001
819.41	66.8273
819.52	66.0386
819.64	68.1360
819.75	68.2436
819.86	67.2299
819.98	67.5579
820.09	68.5081
820.21	66.5497
820.32	64.6271
820.44	67.4947
820.55	67.3447
820.66	66.5781
820.78	66.8378
820.89	68.6593
821.01	66.6982
821.12	68.3270
821.23	66.0049
821.35	65.8215
821.46	67.3226
821.58	68.9028
821.69	65.6192
821.81	66.9723
821.92	66.0655
822.03	66.2300
822.15	66.2636
822.26	66.6751
822.38	66.9611
822.49	68.6018
822.61	65.8718
822.72	65.2794
822.83	68.5340
822.95	67.7462
823.06	65.6013
823.18	66.5238
823.29	67.5578
823.40	70.2574
823.52	66.5397
823.63	69.1919
823.75	73.5834
823.86	69.0896
823.97	67.0442
824.09	71.9832
824.20	73.4237
824.32	69.2329
824.43	67.9103
824.55	68.5485
824.66	70.6568
824.77	65.9872
824.89	67.3943
825.00	70.2286
825.12	69.7850
825.23	71.7330
825.34	70.6449
825.46	70.1623
825.57	77.0774
825.69	73.7075
825.80	71.9202
825.91	72.5963
826.03	74.5860
826.14	68.1494
826.26	68.9385
826.37	65.9099
826.48	75.5725
826.60	72.6749
826.71	73.6970
826.83	66.8449
826.94	64.5575
827.05	63.0280
827.17	66.0421
827.28	70.9265
827.39	76.7532
827.51	80.5376
827.62	78.5056
827.74	83.1023
827.85	81.3636
827.96	63.8341
828.08	76.5878
828.19	109.9850
828.31	95.5155
828.42	82.0792
828.53	99.8694
828.65	7.6225
828.76	0.0000
828.87	0.0000
828.99	0.0000
