Wavelength (nm)	Reflectance (%)
377.35	0.0000
377.48	0.0000
377.62	0.0000
377.75	0.0000
377.88	0.0000
378.02	0.0000
378.15	200.0000
378.28	116.0000
378.41	0.0000
378.55	200.0000
378.68	51.8000
378.81	200.0000
378.95	200.0000
379.08	200.0000
379.21	200.0000
379.35	122.1935
379.48	163.8140
379.61	157.4621
379.74	88.3794
379.88	3.5610
380.01	34.5567
380.14	61.1572
380.28	14.3983
380.41	6.3242
380.54	88.8657
380.68	83.8267
380.81	34.4290
380.94	15.9535
381.07	45.2179
381.21	52.7783
381.34	0.0000
381.47	13.1483
381.61	77.6483
381.74	56.4855
381.87	0.0000
382.00	43.1078
382.14	69.0425
382.27	5.8048
382.40	0.0000
382.54	41.4528
382.67	49.6467
382.80	12.2329
382.93	32.2667
383.07	41.4882
383.20	36.1953
383.33	59.6215
383.47	20.7640
383.60	20.7407
383.73	51.4383
383.86	50.0498
384.00	9.5852
384.13	49.8765
384.26	62.7259
384.40	34.7580
384.53	21.8385
384.66	40.3759
384.79	57.5135
384.93	45.9973
385.06	21.2917
385.19	20.7601
385.33	20.4247
385.46	0.0000
385.59	7.3929
385.72	43.2333
385.86	34.9832
385.99	36.1165
386.12	36.9405
386.25	8.9602
386.39	16.9415
386.52	32.8074
386.65	24.4568
386.79	3.3678
386.92	36.4163
387.05	43.0328
387.18	18.5136
387.32	10.6608
387.45	49.6305
387.58	39.7449
387.71	20.8258
387.85	25.4003
387.98	25.5285
388.11	26.7217
388.25	13.8495
388.38	5.2423
388.51	15.9109
388.64	38.6126
388.78	38.4011
388.91	12.0428
389.04	33.7103
389.17	29.5053
389.31	0.0000
389.44	0.0000
389.57	21.5512
389.70	18.9327
389.84	24.5714
389.97	26.6539
390.10	32.1325
390.24	34.2494
390.37	12.1699
390.50	8.0871
390.63	14.7466
390.77	8.0586
390.90	11.3008
391.03	30.0868
391.16	24.6157
391.30	28.3921
391.43	44.1593
391.56	22.1365
391.69	25.4685
391.83	43.3262
391.96	21.1876
392.09	10.8271
392.22	40.8050
392.36	42.7530
392.49	13.1744
392.62	16.9476
392.75	28.1530
392.89	22.3791
393.02	27.8869
393.15	15.5046
393.28	39.0943
393.42	28.5212
393.55	27.5754
393.68	14.5100
393.81	37.6150
393.95	34.9454
394.08	30.0414
394.21	20.8157
394.34	20.4473
394.48	23.7818
394.61	14.4189
394.74	19.7930
394.87	17.0864
395.01	33.9940
395.14	17.7125
395.27	4.5985
395.40	15.4399
395.54	23.8902
395.67	2.8458
395.80	18.1481
395.93	35.0325
396.07	34.0927
396.20	29.1763
396.33	31.7402
396.46	33.1100
396.59	37.9200
396.73	18.4775
396.86	15.6437
396.99	32.5878
397.12	47.8578
397.26	0.0000
397.39	5.0552
397.52	25.5819
397.65	18.7239
397.79	0.0000
397.92	33.7562
398.05	44.0034
398.18	19.7548
398.32	8.0705
398.45	14.1681
398.58	21.0994
398.71	14.4124
398.84	13.8841
398.98	14.8996
399.11	22.1875
399.24	16.6121
399.37	16.0776
399.51	21.1438
399.64	21.9415
399.77	19.0643
399.90	24.4094
400.03	15.4693
400.17	10.2124
400.30	12.6087
400.43	13.8231
400.56	7.4079
400.70	21.1030
400.83	25.7771
400.96	25.5721
401.09	16.8056
401.23	17.8735
401.36	12.8899
401.49	13.5690
401.62	18.4183
401.75	27.0819
401.89	20.1392
402.02	17.7521
402.15	17.3894
402.28	17.7671
402.41	20.4239
402.55	13.4350
402.68	12.3294
402.81	19.2730
402.94	21.8871
403.08	12.8000
403.21	17.8160
403.34	27.9342
403.47	18.5672
403.60	6.9303
403.74	14.3984
403.87	18.0133
404.00	16.8874
404.13	24.5661
404.26	24.4624
404.40	21.8663
404.53	28.2531
404.66	16.1770
404.79	10.6308
404.93	24.8564
405.06	23.0956
405.19	13.8221
405.32	17.8892
405.45	25.8200
405.59	27.2826
405.72	5.6138
405.85	15.9696
405.98	26.2617
406.11	19.7529
406.25	2.7655
406.38	22.5844
406.51	19.0604
406.64	14.2901
406.77	8.9409
406.91	15.8217
407.04	17.8375
407.17	17.0671
407.30	5.9349
407.43	4.9636
407.57	11.8049
407.70	13.5506
407.83	16.1872
407.96	12.1878
408.09	22.5289
408.23	23.4903
408.36	8.0896
408.49	3.2597
408.62	22.5155
408.75	16.7026
408.89	11.3040
409.02	16.4936
409.15	15.8320
409.28	19.0973
409.41	6.7791
409.55	5.3384
409.68	20.7190
409.81	16.9522
409.94	6.4794
410.07	22.6309
410.20	22.6517
410.34	13.3027
410.47	12.1094
410.60	17.4251
410.73	13.6957
410.86	16.6444
411.00	17.6201
411.13	21.8637
411.26	14.8571
411.39	15.9903
411.52	12.7887
411.66	15.3301
411.79	13.2352
411.92	18.2512
412.05	17.8665
412.18	12.4523
412.31	5.8589
412.45	15.4902
412.58	12.7212
412.71	4.9701
412.84	13.1649
412.97	20.6306
413.11	11.4272
413.24	1.5909
413.37	12.2274
413.50	15.1621
413.63	8.0416
413.76	8.1153
413.90	20.3535
414.03	17.9154
414.16	15.0979
414.29	8.5578
414.42	14.4036
414.56	12.7777
414.69	13.0563
414.82	9.3393
414.95	17.7356
415.08	11.0230
415.21	21.0484
415.35	15.2881
415.48	9.6680
415.61	20.4076
415.74	25.7522
415.87	1.7488
416.00	8.2939
416.14	20.7449
416.27	11.5866
416.40	5.6589
416.53	18.4833
416.66	21.0996
416.79	12.6847
416.93	12.6438
417.06	14.8516
417.19	16.2727
417.32	17.5135
417.45	12.7583
417.58	14.5715
417.72	15.2869
417.85	10.1293
417.98	6.6538
418.11	13.9507
418.24	11.4309
418.37	10.6915
418.51	7.2952
418.64	6.7227
418.77	12.6356
418.90	12.8020
419.03	8.5587
419.16	19.3633
419.29	26.0542
419.43	9.5289
419.56	8.1538
419.69	17.4566
419.82	15.1037
419.95	7.0507
420.08	9.4929
420.22	9.5754
420.35	7.1308
420.48	10.8457
420.61	7.9757
420.74	18.3570
420.87	23.6723
421.00	18.8739
421.14	9.6440
421.27	14.0455
421.40	12.4593
421.53	9.2097
421.66	11.5149
421.79	15.0136
421.93	18.2378
422.06	13.9598
422.19	10.5639
422.32	10.7615
422.45	14.9385
422.58	8.5787
422.71	6.3692
422.85	12.5623
422.98	15.1122
423.11	11.4834
423.24	14.7029
423.37	16.7759
423.50	14.1585
423.63	13.6419
423.77	11.9421
423.90	7.5178
424.03	8.8239
424.16	11.9661
424.29	10.8056
424.42	14.0615
424.55	14.8045
424.69	14.6993
424.82	14.9697
424.95	10.8115
425.08	10.8994
425.21	12.9335
425.34	11.6538
425.47	11.4027
425.60	15.2555
425.74	12.8695
425.87	11.5454
426.00	15.0063
426.13	12.7512
426.26	12.6212
426.39	8.4789
426.52	10.3748
426.66	15.6120
426.79	8.0685
426.92	4.1523
427.05	11.7487
427.18	12.7298
427.31	8.3950
427.44	12.8902
427.57	18.1807
427.71	16.2389
427.84	9.8914
427.97	6.3144
428.10	10.9190
428.23	17.2664
428.36	7.2859
428.49	5.5239
428.62	8.6640
428.76	11.8904
428.89	4.9622
429.02	6.8530
429.15	15.9579
429.28	16.2163
429.41	12.2269
429.54	8.2182
429.67	15.9719
429.81	15.8249
429.94	11.7477
430.07	5.6378
430.20	11.3052
430.33	12.0847
430.46	8.6354
430.59	13.1992
430.72	17.3683
430.85	16.3436
430.99	11.8054
431.12	9.4502
431.25	9.5094
431.38	12.5174
431.51	6.4287
431.64	5.9266
431.77	10.3365
431.90	11.4422
432.03	7.9578
432.17	10.8175
432.30	15.1613
432.43	13.9654
432.56	10.4486
432.69	8.4508
432.82	10.2903
432.95	10.1973
433.08	10.9025
433.21	11.2007
433.35	15.7514
433.48	14.3535
433.61	14.2919
433.74	11.3759
433.87	12.9075
434.00	11.5224
434.13	11.3837
434.26	9.2849
434.39	12.6593
434.53	12.2397
434.66	13.6619
434.79	10.5837
434.92	14.1639
435.05	13.6903
435.18	9.0940
435.31	6.9740
435.44	11.9878
435.57	13.4474
435.70	11.1858
435.84	8.4712
435.97	11.5505
436.10	13.3261
436.23	10.1673
436.36	11.8748
436.49	18.2486
436.62	13.9032
436.75	10.7092
436.88	11.3638
437.01	14.4271
437.14	14.7594
437.28	12.5071
437.41	10.6898
437.54	12.7996
437.67	14.7656
437.80	6.1041
437.93	7.5363
438.06	13.5845
438.19	13.5712
438.32	8.3141
438.45	12.5271
438.58	14.2614
438.72	13.0855
438.85	10.7766
438.98	9.1230
439.11	10.8941
439.24	11.8282
439.37	6.6664
439.50	7.1961
439.63	11.2966
439.76	13.7920
439.89	12.7996
440.02	11.6664
440.15	11.8468
440.29	13.5129
440.42	10.4845
440.55	6.0594
440.68	12.2676
440.81	13.6805
440.94	6.4859
441.07	7.9070
441.20	14.8250
441.33	12.5194
441.46	9.7761
441.59	13.3922
441.72	14.0466
441.85	12.0987
441.99	9.3490
442.12	9.5322
442.25	9.2003
442.38	11.5557
442.51	10.6302
442.64	11.6903
442.77	12.7134
442.90	13.9970
443.03	11.3590
443.16	9.8546
443.29	12.4889
443.42	11.1814
443.55	12.4086
443.68	12.6649
443.82	15.0791
443.95	12.6567
444.08	13.7755
444.21	11.6988
444.34	11.6585
444.47	11.6312
444.60	13.6115
444.73	10.4340
444.86	10.2108
444.99	11.1035
445.12	11.5498
445.25	8.9844
445.38	10.1008
445.51	12.2651
445.64	15.7794
445.78	9.9688
445.91	9.8503
446.04	14.7178
446.17	11.2923
446.30	5.7533
446.43	12.6448
446.56	15.8013
446.69	10.1363
446.82	9.6901
446.95	11.7727
447.08	11.6960
447.21	9.0611
447.34	10.4363
447.47	13.2535
447.60	10.9838
447.73	10.2525
447.86	11.9978
447.99	11.6487
448.13	12.0638
448.26	12.3704
448.39	10.4782
448.52	10.3730
448.65	11.9696
448.78	9.6757
448.91	12.4103
449.04	12.8870
449.17	12.3373
449.30	12.4956
449.43	10.9752
449.56	9.9993
449.69	13.6794
449.82	11.1448
449.95	9.1213
450.08	12.3470
450.21	12.8650
450.34	8.7805
450.47	11.4482
450.60	13.6430
450.73	14.1406
450.87	12.5623
451.00	8.3114
451.13	10.4669
451.26	9.7440
451.39	8.6814
451.52	9.6178
451.65	15.4904
451.78	15.3532
451.91	12.3782
452.04	9.9756
452.17	11.8011
452.30	11.9941
452.43	8.1208
452.56	12.2431
452.69	12.1354
452.82	10.6469
452.95	11.8902
453.08	11.9571
453.21	12.6073
453.34	14.6693
453.47	11.5525
453.60	9.9740
453.73	12.2715
453.86	10.2681
453.99	10.6289
454.12	12.2818
454.25	12.5134
454.38	11.4231
454.52	11.3056
454.65	11.9610
454.78	11.9089
454.91	11.5837
455.04	12.4987
455.17	9.9098
455.30	9.7338
455.43	12.8594
455.56	10.6461
455.69	9.2270
455.82	12.6996
455.95	12.1581
456.08	9.9252
456.21	12.5223
456.34	12.4547
456.47	11.7970
456.60	11.6625
456.73	10.1837
456.86	10.5235
456.99	12.3060
457.12	10.4572
457.25	9.6795
457.38	10.8147
457.51	10.1166
457.64	9.2776
457.77	11.4108
457.90	12.4562
458.03	12.0500
458.16	11.3330
458.29	12.1338
458.42	12.2781
458.55	12.6866
458.68	11.4631
458.81	8.4135
458.94	10.1925
459.07	11.8884
459.20	10.0578
459.33	9.6602
459.46	12.7222
459.59	12.2650
459.72	8.1890
459.85	8.8289
459.98	11.4182
460.11	13.4972
460.24	9.7290
460.37	11.0211
460.50	12.1212
460.63	12.1190
460.76	9.5198
460.89	10.5444
461.02	11.7466
461.15	11.6455
461.28	8.6224
461.41	10.5611
461.54	11.7463
461.67	9.7488
461.80	9.0923
461.93	10.6319
462.06	10.3372
462.19	10.6698
462.32	10.8309
462.45	11.0740
462.58	11.4886
462.71	11.7160
462.84	10.7382
462.97	11.2758
463.10	9.9422
463.23	9.9687
463.36	10.0369
463.49	9.0602
463.62	8.9830
463.75	10.3564
463.88	12.0947
464.01	8.5565
464.14	10.3277
464.27	11.7184
464.40	11.0900
464.53	9.6253
464.66	11.2972
464.79	11.4525
464.92	10.3084
465.05	10.4998
465.18	10.3938
465.31	11.8278
465.44	11.4953
465.57	8.9669
465.70	9.4924
465.83	11.3680
465.96	9.3812
466.09	8.4935
466.22	12.0265
466.35	12.3360
466.48	11.1357
466.61	11.6576
466.74	11.5392
466.87	10.5562
467.00	9.2540
467.13	9.9540
467.26	11.5321
467.39	12.1344
467.52	10.4402
467.65	11.4787
467.78	10.2087
467.91	9.0784
468.04	8.8602
468.17	11.3022
468.30	11.4085
468.43	10.7125
468.56	9.7417
468.69	10.8560
468.82	10.5327
468.95	10.6260
469.08	11.6708
469.21	11.2877
469.34	9.6112
469.47	10.1468
469.60	9.8105
469.73	8.7680
469.86	11.1666
469.99	12.4807
470.11	10.8174
470.24	10.5451
470.37	12.1991
470.50	11.8795
470.63	10.9396
470.76	9.8527
470.89	11.3418
471.02	11.5688
471.15	9.1028
471.28	9.0987
471.41	11.5094
471.54	11.5914
471.67	9.6177
471.80	10.8220
471.93	11.7404
472.06	12.3723
472.19	9.4262
472.32	9.8521
472.45	10.6229
472.58	10.1854
472.71	9.4606
472.84	11.3615
472.97	10.7088
473.10	11.6268
473.23	10.8598
473.36	10.0771
473.49	9.6683
473.62	10.1513
473.74	9.5704
473.87	10.8824
474.00	10.7387
474.13	10.0309
474.26	10.9926
474.39	10.6925
474.52	9.9636
474.65	11.6648
474.78	12.4682
474.91	10.4433
475.04	10.4317
475.17	10.9559
475.30	9.1809
475.43	9.2310
475.56	10.7456
475.69	11.3078
475.82	10.3096
475.95	11.2287
476.08	10.8875
476.21	10.8012
476.34	9.0853
476.46	10.1227
476.59	10.0867
476.72	11.0708
476.85	10.2523
476.98	10.8343
477.11	11.1708
477.24	10.8182
477.37	9.2860
477.50	10.3706
477.63	11.1764
477.76	10.5409
477.89	10.2063
478.02	11.0125
478.15	10.7133
478.28	10.5198
478.41	9.8258
478.54	10.2519
478.66	10.3523
478.79	10.5583
478.92	9.9315
479.05	10.6575
479.18	10.5858
479.31	10.5976
479.44	10.6478
479.57	10.7370
479.70	11.1338
479.83	11.5807
479.96	10.2788
480.09	9.6686
480.22	10.0659
480.35	9.7598
480.48	9.7408
480.60	10.4234
480.73	11.1035
480.86	11.1830
480.99	11.0165
481.12	9.9353
481.25	10.7978
481.38	10.8880
481.51	10.3874
481.64	10.4761
481.77	11.2343
481.90	11.0404
482.03	10.2874
482.16	10.6077
482.29	10.4584
482.41	10.9121
482.54	10.7138
482.67	10.8343
482.80	11.5179
482.93	10.9535
483.06	10.2772
483.19	10.6586
483.32	11.2852
483.45	10.2499
483.58	10.5254
483.71	10.5733
483.84	10.2509
483.97	10.1596
484.09	10.5032
484.22	11.0848
484.35	11.2694
484.48	11.1006
484.61	10.8494
484.74	11.1453
484.87	10.5407
485.00	10.8718
485.13	10.9540
485.26	11.2836
485.39	10.4178
485.52	10.5035
485.64	9.8456
485.77	10.4342
485.90	10.0796
486.03	10.9739
486.16	11.2495
486.29	11.3774
486.42	11.0705
486.55	10.9356
486.68	10.5803
486.81	10.7935
486.94	10.7302
487.06	10.4623
487.19	10.8791
487.32	11.0433
487.45	10.7612
487.58	11.3317
487.71	11.0541
487.84	10.2722
487.97	10.1998
488.10	10.5161
488.23	9.8993
488.35	10.3992
488.48	11.0633
488.61	11.2995
488.74	11.1134
488.87	10.8002
489.00	10.7203
489.13	10.9149
489.26	10.6269
489.39	10.4861
489.52	11.0699
489.64	10.9345
489.77	10.8929
489.90	10.9631
490.03	11.0817
490.16	11.1146
490.29	10.9920
490.42	11.0324
490.55	11.0906
490.68	11.5995
490.81	11.0730
490.93	11.2958
491.06	11.1350
491.19	10.6604
491.32	10.5755
491.45	11.1078
491.58	11.2842
491.71	11.6672
491.84	11.6523
491.97	11.1971
492.09	11.3810
492.22	10.9175
492.35	10.7088
492.48	11.3239
492.61	11.1702
492.74	10.8459
492.87	11.3860
493.00	11.1944
493.12	10.8385
493.25	11.1973
493.38	11.7151
493.51	11.4830
493.64	11.4559
493.77	11.7798
493.90	11.3541
494.03	10.6858
494.16	11.1482
494.28	11.8114
494.41	11.0178
494.54	11.0167
494.67	11.8614
494.80	11.4252
494.93	10.7963
495.06	11.5041
495.19	11.9644
495.31	11.6918
495.44	11.4196
495.57	11.6130
495.70	12.0653
495.83	12.1306
495.96	11.5609
496.09	11.4599
496.22	11.9474
496.34	11.6161
496.47	11.1691
496.60	11.2112
496.73	11.8244
496.86	11.1309
496.99	11.3549
497.12	11.3901
497.24	11.4994
497.37	11.5224
497.50	11.9022
497.63	11.0036
497.76	10.8709
497.89	11.8762
498.02	11.8252
498.15	11.3666
498.27	11.6406
498.40	12.0008
498.53	11.0980
498.66	11.3584
498.79	11.5264
498.92	11.9315
499.05	12.0557
499.17	11.6896
499.30	11.2012
499.43	11.8229
499.56	11.5110
499.69	11.4252
499.82	12.2078
499.95	12.4981
500.07	12.0769
500.20	11.5567
500.33	11.8404
500.46	11.9225
500.59	11.6981
500.72	11.4393
500.85	11.9286
500.97	12.0666
501.10	11.8049
501.23	11.4048
501.36	11.6084
501.49	11.9325
501.62	11.1491
501.75	11.5324
501.87	11.8249
502.00	11.6021
502.13	11.6604
502.26	12.0316
502.39	11.9293
502.52	12.2081
502.64	12.1006
502.77	11.8984
502.90	12.1306
503.03	12.0441
503.16	11.5702
503.29	11.8524
503.42	12.0392
503.54	11.8497
503.67	11.2790
503.80	12.0134
503.93	12.2310
504.06	11.8129
504.19	11.8768
504.31	12.2131
504.44	11.7586
504.57	11.9769
504.70	12.2245
504.83	12.3617
504.96	12.5777
505.08	12.1840
505.21	11.7949
505.34	12.0596
505.47	11.8790
505.60	11.8663
505.73	11.6747
505.85	11.9690
505.98	12.1807
506.11	12.4204
506.24	12.2691
506.37	12.6395
506.50	12.5522
506.62	12.3686
506.75	11.8607
506.88	12.0401
507.01	12.3593
507.14	12.3165
507.27	12.2898
507.39	12.5727
507.52	12.1859
507.65	12.5840
507.78	12.3334
507.91	11.9774
508.04	12.0011
508.16	12.3416
508.29	12.2573
508.42	12.6543
508.55	12.4276
508.68	12.6760
508.81	12.8938
508.93	12.5542
509.06	12.3346
509.19	12.7873
509.32	12.5072
509.45	12.3908
509.57	12.3586
509.70	12.5416
509.83	12.5295
509.96	12.5504
510.09	12.5223
510.22	12.8350
510.34	12.1683
510.47	12.2807
510.60	12.3353
510.73	12.4033
510.86	12.5062
510.98	12.8858
511.11	12.7417
511.24	12.9539
511.37	12.7970
511.50	12.5697
511.63	12.7944
511.75	12.8083
511.88	12.6167
512.01	12.4654
512.14	12.4640
512.27	12.3471
512.39	12.3831
512.52	12.6284
512.65	12.7843
512.78	12.7103
512.91	12.5648
513.03	12.5112
513.16	12.3580
513.29	12.4958
513.42	12.2823
513.55	12.7312
513.67	12.9662
513.80	12.9622
513.93	12.7329
514.06	13.0144
514.19	12.6496
514.31	12.7874
514.44	12.7715
514.57	12.5407
514.70	12.8187
514.83	13.0555
514.95	12.7048
515.08	12.6755
515.21	13.0412
515.34	13.0273
515.47	12.9521
515.59	13.0995
515.72	12.9386
515.85	13.1056
515.98	12.9653
516.11	12.8267
516.23	12.9752
516.36	13.4247
516.49	13.0645
516.62	12.7446
516.75	13.2533
516.87	13.0646
517.00	12.5046
517.13	12.6213
517.26	13.3631
517.39	12.9740
517.51	12.5569
517.64	13.0005
517.77	12.9563
517.90	12.4836
518.02	12.8656
518.15	13.2416
518.28	12.9440
518.41	12.9782
518.54	13.1322
518.66	12.9562
518.79	13.1404
518.92	13.2141
519.05	13.0050
519.18	13.0293
519.30	13.0565
519.43	13.0584
519.56	12.7984
519.69	13.1710
519.81	13.3683
519.94	13.3843
520.07	13.2799
520.20	13.4249
520.33	13.5085
520.45	13.2455
520.58	12.9866
520.71	13.0694
520.84	13.5015
520.96	13.5876
521.09	13.3868
521.22	13.4112
521.35	13.6385
521.48	13.6358
521.60	13.3535
521.73	13.2361
521.86	13.5211
521.99	13.4813
522.11	13.2379
522.24	13.3029
522.37	13.2677
522.50	13.4154
522.62	13.2128
522.75	13.4184
522.88	13.3888
523.01	13.6010
523.14	13.0262
523.26	13.4062
523.39	13.0063
523.52	13.0406
523.65	13.3158
523.77	13.7048
523.90	13.3624
524.03	13.7209
524.16	13.8044
524.28	13.6736
524.41	13.8476
524.54	14.0139
524.67	13.8614
524.79	13.5499
524.92	13.8434
525.05	13.5938
525.18	13.7172
525.31	13.1634
525.43	13.6757
525.56	13.9029
525.69	13.7253
525.82	13.3618
525.94	14.2176
526.07	14.1849
526.20	13.3832
526.33	13.4244
526.45	13.7177
526.58	13.6545
526.71	13.5038
526.84	14.0245
526.96	14.1994
527.09	14.1927
527.22	14.4159
527.35	14.0905
527.47	14.1961
527.60	14.1866
527.73	14.0270
527.86	13.6838
527.98	14.1340
528.11	13.7593
528.24	14.0227
528.37	14.0593
528.49	13.8485
528.62	14.0394
528.75	14.1911
528.88	13.8617
529.00	14.0943
529.13	14.5786
529.26	13.9649
529.39	13.7371
529.51	14.2646
529.64	14.1852
529.77	13.9740
529.90	14.3571
530.02	14.7940
530.15	14.4552
530.28	14.3112
530.40	14.1738
530.53	14.2986
530.66	14.0761
530.79	14.1224
530.91	14.1891
531.04	14.3966
531.17	14.3655
531.30	14.4608
531.42	14.0994
531.55	14.2969
531.68	14.3023
531.81	14.1911
531.93	14.3374
532.06	14.7008
532.19	14.5138
532.31	14.3835
532.44	14.6375
532.57	14.5829
532.70	14.4600
532.82	14.2978
532.95	14.4332
533.08	14.4808
533.21	14.5783
533.33	14.8299
533.46	14.5943
533.59	14.6336
533.71	14.5840
533.84	14.4874
533.97	14.4945
534.10	14.9343
534.22	14.8479
534.35	14.5450
534.48	14.7246
534.61	14.8050
534.73	14.7247
534.86	14.5877
534.99	14.7718
535.11	14.5944
535.24	14.5661
535.37	14.8284
535.50	14.7569
535.62	14.6837
535.75	14.7496
535.88	14.6314
536.00	14.4980
536.13	14.8500
536.26	15.1421
536.39	14.8917
536.51	14.9531
536.64	15.0492
536.77	15.0190
536.89	14.8165
537.02	14.9958
537.15	14.8873
537.28	14.9497
537.40	14.7799
537.53	14.7272
537.66	14.9012
537.78	15.0789
537.91	14.9369
538.04	15.3181
538.17	15.2602
538.29	14.9270
538.42	14.8155
538.55	15.0861
538.67	14.8880
538.80	15.1445
538.93	15.1146
539.05	15.0337
539.18	14.8232
539.31	15.2163
539.44	15.1143
539.56	15.3587
539.69	15.7062
539.82	15.8847
539.94	15.2492
540.07	15.4118
540.20	15.4874
540.32	15.3111
540.45	14.8853
540.58	15.4658
540.71	15.5593
540.83	15.6075
540.96	15.3479
541.09	15.4456
541.21	15.5748
541.34	15.6298
541.47	15.3915
541.59	15.1803
541.72	15.3692
541.85	15.3694
541.98	15.2964
542.10	14.9822
542.23	15.5190
542.36	15.6575
542.48	15.5220
542.61	15.4287
542.74	15.8852
542.86	15.8764
542.99	15.6874
543.12	15.7064
543.24	15.5982
543.37	15.6127
543.50	15.5809
543.62	15.7398
543.75	15.5204
543.88	15.4938
544.01	15.4124
544.13	15.5441
544.26	15.5900
544.39	15.7516
544.51	15.7690
544.64	15.9527
544.77	15.8345
544.89	15.9447
545.02	15.5561
545.15	15.5026
545.27	15.3988
545.40	15.2786
545.53	15.3885
545.65	15.8447
545.78	16.0157
545.91	15.9570
546.03	16.1785
546.16	16.0377
546.29	15.9271
546.41	16.1215
546.54	16.1094
546.67	15.7654
546.79	15.9122
546.92	15.8752
547.05	15.8322
547.17	15.8775
547.30	16.3156
547.43	16.0415
547.56	16.2509
547.68	16.0461
547.81	16.2278
547.94	16.3441
548.06	16.2199
548.19	16.1680
548.32	16.4210
548.44	16.3455
548.57	15.9871
548.70	16.1690
548.82	16.2360
548.95	16.2836
549.08	16.0049
549.20	16.2008
549.33	16.3430
549.45	16.4078
549.58	16.0817
549.71	16.6638
549.83	16.6959
549.96	16.7016
550.09	16.5109
550.21	16.7443
550.34	16.5384
550.47	16.8467
550.59	16.7369
550.72	16.4618
550.85	16.6334
550.97	16.7751
551.10	16.2274
551.23	16.2386
551.35	16.7159
551.48	16.7227
551.61	16.4167
551.73	16.5308
551.86	16.7601
551.99	16.4856
552.11	16.2398
552.24	16.5834
552.37	16.7892
552.49	16.4662
552.62	16.6448
552.75	16.8955
552.87	16.7028
553.00	16.7252
553.12	16.8290
553.25	16.6104
553.38	16.4995
553.50	16.8104
553.63	16.6777
553.76	16.7676
553.88	17.0470
554.01	16.9853
554.14	16.5224
554.26	16.6824
554.39	16.7017
554.52	16.7606
554.64	16.8280
554.77	17.0290
554.89	16.9474
555.02	17.0054
555.15	16.9511
555.27	16.7368
555.40	16.8728
555.53	17.1665
555.65	17.0172
555.78	16.7142
555.91	17.2456
556.03	17.3486
556.16	16.9635
556.29	16.9466
556.41	17.4426
556.54	17.4204
556.66	17.0356
556.79	17.1816
556.92	17.5465
557.04	17.3779
557.17	17.1863
557.30	17.4538
557.42	17.3950
557.55	17.2411
557.67	17.1940
557.80	17.1370
557.93	17.3551
558.05	17.4636
558.18	17.3327
558.31	17.3239
558.43	17.3790
558.56	17.3873
558.68	17.4501
558.81	17.1574
558.94	17.2896
559.06	17.3437
559.19	17.2660
559.32	17.1590
559.44	17.5969
559.57	17.6052
559.69	17.4979
559.82	17.3533
559.95	17.6395
560.07	17.5093
560.20	17.2776
560.33	17.4651
560.45	17.3143
560.58	17.1684
560.70	17.3280
560.83	17.4463
560.96	17.1825
561.08	17.5635
561.21	17.7608
561.33	17.5886
561.46	17.7144
561.59	17.8718
561.71	17.8814
561.84	17.5547
561.97	17.8350
562.09	17.9784
562.22	17.9009
562.34	17.7642
562.47	17.9928
562.60	17.9026
562.72	17.7134
562.85	17.8553
562.97	17.9604
563.10	17.9241
563.23	17.8511
563.35	17.8908
563.48	17.7762
563.60	17.9056
563.73	17.9890
563.86	18.0850
563.98	18.1913
564.11	18.1655
564.23	18.1069
564.36	17.8588
564.49	17.9336
564.61	18.0952
564.74	18.2207
564.86	18.1651
564.99	18.2954
565.12	18.3319
565.24	18.1764
565.37	18.1455
565.49	18.1915
565.62	18.5582
565.75	18.1155
565.87	18.0298
566.00	18.3472
566.12	18.2267
566.25	17.9774
566.38	18.3060
566.50	18.4053
566.63	18.3109
566.75	18.4532
566.88	18.3750
567.01	18.4450
567.13	18.5445
567.26	18.3474
567.38	18.4631
567.51	18.4719
567.64	18.3624
567.76	18.3796
567.89	18.6623
568.01	18.4261
568.14	18.4622
568.26	18.6892
568.39	18.5109
568.52	18.4233
568.64	18.5803
568.77	18.6750
568.89	18.6492
569.02	18.8171
569.15	18.7234
569.27	18.5778
569.40	18.5821
569.52	18.5822
569.65	18.6790
569.77	18.9803
569.90	18.8630
570.03	18.8910
570.15	19.0179
570.28	19.0592
570.40	18.7358
570.53	18.8580
570.66	18.8492
570.78	18.8725
570.91	18.6303
571.03	18.7757
571.16	18.9527
571.28	18.9693
571.41	18.9558
571.54	19.0170
571.66	19.0311
571.79	19.1431
571.91	19.0750
572.04	18.9211
572.16	19.1186
572.29	19.1547
572.42	19.1862
572.54	19.2129
572.67	19.3732
572.79	19.2894
572.92	19.2218
573.04	19.2303
573.17	19.4930
573.29	19.3725
573.42	19.2867
573.55	19.3755
573.67	19.4312
573.80	19.3055
573.92	19.2554
574.05	19.3440
574.17	19.4138
574.30	19.3541
574.43	19.2949
574.55	19.4961
574.68	19.5081
574.80	19.5744
574.93	19.5842
575.05	19.6982
575.18	19.6026
575.30	19.5205
575.43	19.4627
575.56	19.5019
575.68	19.6237
575.81	19.6257
575.93	19.6755
576.06	19.8110
576.18	19.9550
576.31	19.5415
576.43	19.5485
576.56	19.7454
576.69	19.7872
576.81	19.6732
576.94	19.8815
577.06	20.0431
577.19	19.9670
577.31	19.7291
577.44	19.7232
577.56	19.6948
577.69	19.7523
577.82	20.0048
577.94	20.0301
578.07	19.8348
578.19	20.1601
578.32	20.2623
578.44	19.9627
578.57	20.1512
578.69	20.3226
578.82	20.1025
578.94	19.9860
579.07	20.1247
579.19	20.0001
579.32	20.0628
579.45	20.2729
579.57	20.2365
579.70	20.2871
579.82	20.1795
579.95	20.2787
580.07	20.2031
580.20	20.2151
580.32	20.1698
580.45	20.4113
580.57	20.2909
580.70	20.2275
580.82	20.5089
580.95	20.3823
581.08	20.4087
581.20	20.4484
581.33	20.4711
581.45	20.1675
581.58	20.6130
581.70	20.5041
581.83	20.3799
581.95	20.4916
582.08	20.5764
582.20	20.3442
582.33	20.5165
582.45	20.5707
582.58	20.6323
582.70	20.7265
582.83	20.6573
582.95	20.5455
583.08	20.6376
583.21	20.6740
583.33	20.8331
583.46	20.7963
583.58	20.8043
583.71	20.8601
583.83	20.7832
583.96	20.6071
584.08	20.7037
584.21	20.8852
584.33	21.1046
584.46	20.9699
584.58	20.8858
584.71	21.0649
584.83	21.2376
584.96	20.8625
585.08	20.9140
585.21	21.0710
585.33	20.9116
585.46	20.8665
585.58	21.1405
585.71	21.1580
585.83	21.1971
585.96	21.2469
586.08	21.0086
586.21	21.1625
586.33	21.2318
586.46	21.3500
586.59	21.2792
586.71	21.2817
586.84	21.3329
586.96	21.4773
587.09	21.0930
587.21	21.2820
587.34	21.5565
587.46	21.2588
587.59	21.2042
587.71	21.6493
587.84	21.7157
587.96	21.4681
588.09	21.5718
588.21	21.5429
588.34	21.4965
588.46	21.3871
588.59	21.5540
588.71	21.6392
588.84	21.4089
588.96	21.3762
589.09	21.5923
589.21	21.6496
589.34	21.5936
589.46	21.7264
589.59	21.8765
589.71	21.8141
589.84	21.7134
589.96	21.6354
590.09	21.7983
590.21	21.6431
590.34	21.7308
590.46	21.8601
590.59	21.8376
590.71	22.0956
590.84	22.1132
590.96	21.9986
591.09	22.0664
591.21	22.3916
591.34	22.0399
591.46	22.0150
591.59	22.0252
591.71	22.1219
591.83	22.0529
591.96	22.1414
592.08	22.2066
592.21	22.3130
592.33	22.2572
592.46	22.2021
592.58	22.2041
592.71	22.2601
592.83	22.0158
592.96	22.0771
593.08	22.2433
593.21	22.3993
593.33	22.4588
593.46	22.5446
593.58	22.3632
593.71	22.4200
593.83	22.1433
593.96	22.1157
594.08	22.2785
594.21	22.3286
594.33	22.2865
594.46	22.7567
594.58	22.7727
594.71	22.8307
594.83	22.4558
594.96	22.4016
595.08	22.4185
595.20	22.6058
595.33	22.2442
595.45	22.6525
595.58	22.7870
595.70	22.6448
595.83	22.3903
595.95	22.8098
596.08	22.9813
596.20	22.7735
596.33	22.8424
596.45	23.0402
596.58	22.9100
596.70	22.7645
596.83	22.7844
596.95	22.8942
597.08	22.8455
597.20	22.8519
597.32	22.9429
597.45	22.9849
597.57	22.9210
597.70	22.9044
597.82	23.0032
597.95	23.0061
598.07	23.1108
598.20	23.2467
598.32	23.2241
598.45	23.0800
598.57	23.2342
598.70	23.3501
598.82	23.0490
598.94	23.0553
599.07	23.2540
599.19	23.4571
599.32	23.1947
599.44	23.2848
599.57	23.4370
599.69	23.5753
599.82	23.0961
599.94	23.2683
600.07	23.6328
600.19	23.6763
600.31	23.3030
600.44	23.3455
600.56	23.5728
600.69	23.4555
600.81	23.4555
600.94	23.6565
601.06	23.7207
601.19	23.8119
601.31	23.6018
601.44	23.5087
601.56	23.6489
601.68	23.7993
601.81	23.4477
601.93	23.7524
602.06	23.9149
602.18	23.6904
602.31	23.5817
602.43	23.7791
602.56	23.6594
602.68	23.4856
602.80	23.7708
602.93	23.8313
603.05	23.8429
603.18	23.9685
603.30	24.1234
603.43	24.0113
603.55	24.0371
603.68	23.9972
603.80	23.9481
603.92	23.9277
604.05	24.0775
604.17	24.1349
604.30	24.1314
604.42	23.9619
604.55	24.0611
604.67	24.0078
604.79	24.0351
604.92	24.0919
605.04	24.2784
605.17	24.3275
605.29	24.1609
605.42	24.1959
605.54	24.1915
605.66	24.1815
605.79	24.1158
605.91	24.3509
606.04	24.2008
606.16	24.2520
606.29	24.2713
606.41	24.3939
606.53	24.3360
606.66	24.5044
606.78	24.5005
606.91	24.5023
607.03	24.5165
607.16	24.4810
607.28	24.3951
607.40	24.4924
607.53	24.6442
607.65	24.5820
607.78	24.4030
607.90	24.6151
608.03	24.5962
608.15	24.6823
608.27	24.7152
608.40	25.0840
608.52	24.9458
608.65	25.0781
608.77	24.8473
608.89	24.6219
609.02	24.6717
609.14	24.6915
609.27	24.6675
609.39	25.0025
609.52	25.2790
609.64	25.2587
609.76	25.2179
609.89	25.0280
610.01	24.8489
610.14	24.9616
610.26	24.7671
610.38	25.0021
610.51	25.3348
610.63	25.3019
610.76	25.1468
610.88	25.1364
611.01	25.0201
611.13	25.0003
611.25	25.0777
611.38	25.1378
611.50	25.3527
611.63	25.4779
611.75	25.4220
611.87	25.2576
612.00	25.3558
612.12	25.6254
612.25	25.5503
612.37	25.4756
612.49	25.4923
612.62	25.4689
612.74	25.2855
612.87	25.5212
612.99	25.5280
613.11	25.6026
613.24	25.5919
613.36	25.5917
613.49	25.5302
613.61	25.4672
613.73	25.7680
613.86	25.8759
613.98	25.8768
614.11	25.7975
614.23	25.9011
614.35	25.7597
614.48	25.7715
614.60	25.7662
614.72	25.8191
614.85	25.8868
614.97	25.9728
615.10	25.9284
615.22	25.8828
615.34	26.0720
615.47	26.0992
615.59	26.0168
615.72	26.2419
615.84	26.1292
615.96	26.0512
616.09	26.2249
616.21	26.3009
616.34	26.1204
616.46	26.4016
616.58	26.3277
616.71	26.1721
616.83	26.0809
616.95	26.1097
617.08	26.2458
617.20	26.4026
617.33	26.3311
617.45	26.4237
617.57	26.5844
617.70	26.5408
617.82	26.3597
617.95	26.4802
618.07	26.4722
618.19	26.3115
618.32	26.3311
618.44	26.5878
618.56	26.7376
618.69	26.6233
618.81	26.7235
618.94	26.6518
619.06	26.6114
619.18	26.5946
619.31	26.6400
619.43	26.4858
619.55	26.7669
619.68	26.8302
619.80	26.4570
619.92	26.5176
620.05	26.8543
620.17	26.7705
620.30	26.6191
620.42	27.0562
620.54	27.2440
620.67	27.1143
620.79	26.8532
620.91	26.9747
621.04	26.9331
621.16	27.0018
621.29	26.9679
621.41	27.1804
621.53	27.3098
621.66	27.2055
621.78	26.8613
621.90	27.0045
622.03	27.1035
622.15	26.9771
622.27	27.1555
622.40	27.3941
622.52	27.5056
622.64	27.4713
622.77	27.4059
622.89	27.3845
623.02	27.4730
623.14	27.3322
623.26	27.2001
623.39	27.4186
623.51	27.6162
623.63	27.4493
623.76	27.4238
623.88	27.6690
624.00	27.6442
624.13	27.5941
624.25	27.6463
624.37	27.5888
624.50	27.7138
624.62	27.8497
624.75	27.6277
624.87	27.8775
624.99	28.0922
625.12	27.6437
625.24	27.4570
625.36	27.6240
625.49	27.5460
625.61	27.3375
625.73	27.6480
625.86	27.8034
625.98	27.9271
626.10	27.8629
626.23	28.0614
626.35	28.1312
626.47	28.0787
626.60	28.0023
626.72	28.0158
626.84	28.1430
626.97	28.2237
627.09	27.9919
627.21	27.8274
627.34	28.1657
627.46	28.1153
627.58	27.9053
627.71	28.4202
627.83	28.5136
627.95	28.0376
628.08	28.0920
628.20	28.3745
628.32	28.2320
628.45	28.3117
628.57	28.5164
628.69	28.3041
628.82	28.2769
628.94	28.3283
629.06	28.2817
629.19	28.5733
629.31	28.7345
629.43	28.6763
629.56	28.4555
629.68	28.7103
629.80	28.6819
629.93	28.7899
630.05	28.8038
630.17	29.1034
630.30	28.9460
630.42	28.9566
630.54	29.0778
630.67	28.7716
630.79	28.7236
630.91	28.9102
631.04	28.8272
631.16	28.8110
631.28	29.3032
631.41	29.1744
631.53	28.9929
631.65	28.9875
631.78	28.8828
631.90	29.0579
632.02	28.9876
632.14	29.1217
632.27	29.3340
632.39	29.1780
632.51	28.9741
632.64	29.3297
632.76	29.3642
632.88	29.3623
633.01	29.6382
633.13	29.2475
633.25	29.3566
633.38	29.4824
633.50	29.4559
633.62	29.5301
633.75	29.7062
633.87	29.5464
633.99	29.5056
634.11	29.4208
634.24	29.3585
634.36	29.5606
634.48	29.3978
634.61	29.4680
634.73	29.6184
634.85	29.7112
634.98	29.8722
635.10	29.7156
635.22	29.7108
635.35	29.8761
635.47	29.8218
635.59	29.6774
635.71	30.0892
635.84	29.9519
635.96	29.8614
636.08	29.7880
636.21	29.7739
636.33	29.8528
636.45	30.1779
636.58	29.9258
636.70	30.1048
636.82	30.4858
636.94	30.3242
637.07	30.0578
637.19	30.2307
637.31	30.4086
637.44	30.1878
637.56	30.2574
637.68	30.3682
637.81	30.7188
637.93	30.4529
638.05	30.0951
638.17	30.2348
638.30	30.3445
638.42	30.0636
638.54	30.1613
638.67	30.5951
638.79	30.5596
638.91	30.5751
639.03	30.6111
639.16	30.6838
639.28	30.7640
639.40	30.6111
639.53	30.6013
639.65	30.6963
639.77	30.6166
639.89	30.4729
640.02	30.7854
640.14	30.6175
640.26	30.7013
640.39	30.8038
640.51	30.7864
640.63	30.6654
640.75	30.9165
640.88	30.8775
641.00	30.4964
641.12	30.7193
641.24	30.9519
641.37	30.5488
641.49	30.6460
641.61	31.0704
641.74	31.1546
641.86	30.9441
641.98	31.2778
642.10	31.3026
642.23	31.3058
642.35	31.1757
642.47	31.1263
642.60	31.3561
642.72	31.2644
642.84	31.2878
642.96	31.3472
643.09	31.5356
643.21	31.5183
643.33	31.4254
643.45	31.2432
643.58	31.3721
643.70	31.4208
643.82	31.3513
643.94	31.4702
644.07	31.6863
644.19	31.5262
644.31	31.5265
644.44	31.6010
644.56	31.7026
644.68	31.7969
644.80	31.9581
644.93	31.8884
645.05	31.8320
645.17	31.7990
645.29	31.8341
645.42	31.6751
645.54	31.7384
645.66	31.8967
645.78	31.8789
645.91	31.6350
646.03	31.8857
646.15	31.9885
646.27	31.8657
646.40	31.7831
646.52	32.0831
646.64	32.2025
646.76	32.0376
646.89	32.0148
647.01	32.0325
647.13	32.1426
647.25	32.0362
647.38	31.9966
647.50	32.2636
647.62	32.5925
647.74	32.3518
647.87	32.1324
647.99	32.3695
648.11	32.4325
648.23	32.1127
648.36	32.2177
648.48	32.5298
648.60	32.6900
648.72	32.3116
648.85	32.5205
648.97	32.7078
649.09	32.6444
649.21	32.5321
649.34	32.8046
649.46	32.8581
649.58	32.9272
649.70	32.8442
649.83	32.8028
649.95	32.7151
650.07	32.7903
650.19	32.5924
650.32	32.6372
650.44	32.8102
650.56	32.9815
650.68	33.0301
650.81	32.9453
650.93	33.1165
651.05	33.0061
651.17	32.9922
651.29	32.9086
651.42	33.2375
651.54	33.4059
651.66	33.4521
651.78	33.0651
651.91	33.1331
652.03	33.2160
652.15	33.0009
652.27	33.0766
652.40	33.5015
652.52	33.6742
652.64	33.2193
652.76	33.2743
652.88	33.4358
653.01	33.7347
653.13	33.5330
653.25	33.7222
653.37	33.7222
653.50	33.8153
653.62	33.3828
653.74	33.3869
653.86	33.7184
653.98	33.8747
654.11	33.8015
654.23	33.7077
654.35	33.8871
654.47	33.8754
654.60	33.9897
654.72	33.7580
654.84	34.0886
654.96	34.0516
655.08	34.0147
655.21	33.7567
655.33	33.9454
655.45	34.0973
655.57	34.1245
655.70	33.9413
655.82	34.0916
655.94	34.3949
656.06	34.1851
656.18	34.1157
656.31	34.4165
656.43	34.5043
656.55	34.2880
656.67	34.2642
656.79	34.4849
656.92	34.5730
657.04	34.2087
657.16	34.2382
657.28	34.3615
657.40	34.4360
657.53	34.2212
657.65	34.3737
657.77	34.4657
657.89	34.7084
658.01	34.4622
658.14	34.5493
658.26	34.9411
658.38	35.0242
658.50	34.5357
658.62	34.6982
658.75	34.7578
658.87	34.8960
658.99	34.7586
659.11	34.8904
659.23	34.9417
659.36	34.9749
659.48	34.7690
659.60	34.8820
659.72	35.1507
659.84	35.1527
659.97	34.7799
660.09	34.5655
660.21	34.6746
660.33	34.8959
660.45	34.8614
660.58	35.1212
660.70	35.4731
660.82	35.2988
660.94	34.9388
661.06	34.9345
661.19	35.1317
661.31	35.0384
661.43	34.9883
661.55	35.0312
661.67	35.2729
661.80	35.2506
661.92	35.2696
662.04	35.2578
662.16	35.5723
662.28	35.4929
662.40	35.4185
662.53	35.5404
662.65	35.5898
662.77	35.6042
662.89	35.7298
663.01	35.7818
663.14	35.6140
663.26	35.8579
663.38	35.7581
663.50	35.5260
663.62	35.6957
663.74	35.9243
663.87	35.8658
663.99	35.6288
664.11	35.9369
664.23	36.0480
664.35	35.9263
664.48	35.9887
664.60	36.4793
664.72	36.4470
664.84	36.1879
664.96	36.2817
665.08	36.2008
665.21	36.3416
665.33	36.3310
665.45	36.2819
665.57	36.2851
665.69	36.4963
665.81	36.3371
665.94	36.2131
666.06	36.4017
666.18	36.5420
666.30	36.2998
666.42	36.1279
666.54	36.3953
666.67	36.3158
666.79	36.1999
666.91	36.5320
667.03	36.6543
667.15	36.6347
667.27	36.8628
667.40	36.6800
667.52	36.5995
667.64	36.8366
667.76	36.6454
667.88	36.4296
668.00	36.7113
668.13	36.7624
668.25	36.6429
668.37	36.6336
668.49	36.9225
668.61	36.9777
668.73	36.8443
668.85	36.7495
668.98	37.0552
669.10	37.0043
669.22	36.7840
669.34	37.0526
669.46	37.1624
669.58	37.0278
669.71	37.1498
669.83	37.3403
669.95	37.2434
670.07	37.2575
670.19	37.5018
670.31	37.4978
670.43	37.4187
670.56	37.4252
670.68	37.5858
670.80	37.2402
670.92	37.2704
671.04	37.5571
671.16	37.6533
671.28	37.4217
671.41	37.8031
671.53	38.0421
671.65	37.5946
671.77	37.3607
671.89	37.5495
672.01	37.6266
672.13	37.3256
672.26	37.8270
672.38	37.9384
672.50	37.8387
672.62	37.6580
672.74	37.8059
672.86	37.7276
672.98	37.9043
673.11	37.8692
673.23	37.9977
673.35	38.0350
673.47	38.2994
673.59	38.2531
673.71	38.0779
673.83	38.0938
673.96	38.3030
674.08	38.0727
674.20	38.1349
674.32	38.5156
674.44	38.4791
674.56	38.1674
674.68	38.1268
674.80	38.2252
674.93	38.2771
675.05	38.2403
675.17	38.2807
675.29	38.4501
675.41	38.4652
675.53	38.5059
675.65	38.3743
675.77	38.5599
675.90	38.7436
676.02	38.4965
676.14	38.2447
676.26	38.5756
676.38	38.5728
676.50	38.5427
676.62	38.9682
676.74	39.2035
676.87	39.0342
676.99	39.0048
677.11	38.8397
677.23	38.7978
677.35	39.0241
677.47	39.1151
677.59	39.0747
677.71	39.1965
677.83	39.0731
677.96	38.9743
678.08	39.1684
678.20	39.4115
678.32	39.5135
678.44	39.1890
678.56	39.1506
678.68	39.2484
678.80	39.1682
678.93	39.0469
679.05	39.2784
679.17	39.3732
679.29	39.3401
679.41	39.4179
679.53	39.4394
679.65	39.7063
679.77	39.6653
679.89	39.4619
680.01	39.7485
680.14	39.9960
680.26	39.9163
680.38	39.8288
680.50	40.0228
680.62	39.8321
680.74	39.7684
680.86	39.8925
680.98	39.7567
681.10	39.8538
681.22	39.9802
681.35	40.1318
681.47	39.7251
681.59	40.1299
681.71	40.2415
681.83	39.9128
681.95	39.5638
682.07	40.0308
682.19	40.0824
682.31	39.7178
682.43	40.0431
682.56	40.3051
682.68	40.2120
682.80	40.0973
682.92	40.4009
683.04	40.4299
683.16	40.2521
683.28	40.3601
683.40	40.3561
683.52	40.3699
683.64	40.3520
683.76	40.5659
683.89	40.4000
684.01	40.5515
684.13	40.5742
684.25	40.4437
684.37	40.5267
684.49	40.6280
684.61	40.6872
684.73	40.8661
684.85	40.7418
684.97	40.8785
685.09	41.2513
685.21	40.8764
685.34	40.7778
685.46	41.0806
685.58	40.6809
685.70	40.5849
685.82	41.0193
685.94	40.9931
686.06	40.9689
686.18	41.2592
686.30	41.0642
686.42	41.1784
686.54	40.9761
686.66	41.0791
686.79	40.8119
686.91	40.9311
687.03	41.0114
687.15	41.3501
687.27	41.0886
687.39	41.3955
687.51	41.4379
687.63	41.2358
687.75	40.9462
687.87	41.3993
687.99	41.3671
688.11	41.1664
688.23	41.1792
688.35	41.5166
688.48	41.3616
688.60	41.3440
688.72	41.5664
688.84	41.7816
688.96	41.8393
689.08	41.3977
689.20	41.4357
689.32	41.6795
689.44	41.6962
689.56	41.5699
689.68	42.0561
689.80	42.1602
689.92	41.9286
690.04	41.8211
690.16	41.8712
690.28	42.1201
690.41	42.0293
690.53	41.9265
690.65	41.8707
690.77	41.8893
690.89	41.7296
691.01	41.9424
691.13	42.0986
691.25	42.3910
691.37	42.7019
691.49	42.3147
691.61	42.1929
691.73	42.4581
691.85	42.4907
691.97	42.0692
692.09	42.3210
692.21	42.3473
692.33	42.4092
692.45	42.2553
692.57	42.2700
692.70	42.6460
692.82	42.7584
692.94	42.4882
693.06	42.5862
693.18	42.9242
693.30	42.5901
693.42	42.5544
693.54	42.7498
693.66	42.9421
693.78	42.8618
693.90	43.0618
694.02	43.2743
694.14	43.2292
694.26	42.8843
694.38	42.7849
694.50	42.9279
694.62	42.9129
694.74	42.9074
694.86	43.0606
694.98	43.0501
695.10	43.0563
695.22	43.0246
695.34	43.0871
695.46	43.0442
695.58	43.2807
695.71	43.2645
695.83	42.9858
695.95	43.1584
696.07	43.4273
696.19	43.5821
696.31	43.3024
696.43	43.5748
696.55	43.6270
696.67	43.5528
696.79	43.5158
696.91	43.4733
697.03	43.5646
697.15	43.6177
697.27	43.3819
697.39	43.3273
697.51	43.6999
697.63	43.4454
697.75	43.3313
697.87	43.7087
697.99	43.6703
698.11	43.6153
698.23	43.8584
698.35	43.8303
698.47	43.8669
698.59	43.7084
698.71	43.9182
698.83	44.0080
698.95	44.1167
699.07	43.9978
699.19	44.3697
699.31	44.1716
699.43	44.2195
699.55	44.2507
699.67	44.3990
699.79	44.2896
699.91	44.3951
700.03	44.4058
700.15	44.3371
700.27	44.4209
700.39	44.3783
700.51	44.3924
700.63	44.2471
700.75	44.4400
700.87	44.2755
700.99	44.5164
701.11	44.5548
701.24	44.5274
701.36	44.3998
701.48	44.6531
701.60	44.3063
701.72	44.4237
701.84	44.7668
701.96	44.7138
702.08	44.4558
702.20	44.7320
702.32	44.7912
702.44	44.8290
702.56	45.0335
702.68	44.8924
702.80	44.8040
702.92	44.8534
703.04	44.8048
703.16	44.9215
703.28	45.2344
703.40	45.3317
703.52	45.1929
703.64	45.1556
703.76	45.1112
703.88	45.1780
704.00	45.0896
704.12	45.1661
704.24	45.1290
704.36	45.1874
704.48	45.1002
704.60	45.2678
704.72	45.0415
704.84	45.0066
704.96	45.0657
705.07	45.1849
705.19	45.0707
705.31	45.4602
705.43	45.5198
705.55	45.4212
705.67	45.6569
705.79	45.8682
705.91	45.6553
706.03	45.7197
706.15	45.7868
706.27	45.5516
706.39	45.6442
706.51	45.7784
706.63	45.8196
706.75	45.5949
706.87	45.6793
706.99	45.7750
707.11	45.8165
707.23	45.8694
707.35	46.0176
707.47	45.9077
707.59	45.8706
707.71	45.8792
707.83	46.0557
707.95	45.8364
708.07	45.9711
708.19	46.2536
708.31	46.3044
708.43	46.0995
708.55	46.5198
708.67	46.4714
708.79	46.1447
708.91	46.0381
709.03	46.2208
709.15	46.1007
709.27	46.1679
709.39	46.0879
709.51	46.1106
709.63	46.2696
709.75	46.2069
709.87	46.2293
709.99	46.4763
710.11	46.8423
710.23	46.3422
710.35	46.4561
710.47	46.4747
710.58	46.2575
710.70	46.1517
710.82	46.5506
710.94	46.5785
711.06	46.7382
711.18	46.7470
711.30	46.5838
711.42	46.4820
711.54	46.7817
711.66	46.6075
711.78	46.4610
711.90	46.7565
712.02	47.1590
712.14	46.7521
712.26	46.5939
712.38	46.9945
712.50	46.9660
712.62	46.7583
712.74	46.7006
712.86	47.0636
712.98	47.1262
713.10	46.8747
713.22	46.7600
713.34	46.9627
713.45	46.9541
713.57	46.8486
713.69	46.9242
713.81	47.0964
713.93	47.5494
714.05	47.2979
714.17	47.1783
714.29	47.5097
714.41	47.4214
714.53	47.1683
714.65	47.6259
714.77	47.4779
714.89	47.3437
715.01	47.4345
715.13	47.4521
715.25	47.3964
715.37	47.5940
715.49	47.5348
715.61	47.3298
715.72	47.4349
715.84	47.4837
715.96	47.4576
716.08	47.4467
716.20	47.8060
716.32	47.8370
716.44	47.7858
716.56	47.7631
716.68	47.8374
716.80	47.8781
716.92	47.8143
717.04	47.8164
717.16	48.1776
717.28	48.1299
717.40	47.9958
717.52	47.9764
717.63	47.9361
717.75	47.8948
717.87	48.1657
717.99	48.0125
718.11	47.9460
718.23	47.9609
718.35	48.1845
718.47	48.0433
718.59	48.2884
718.71	48.2566
718.83	48.4830
718.95	48.2483
719.07	48.2682
719.19	48.2004
719.30	48.3984
719.42	48.2640
719.54	48.2874
719.66	48.5650
719.78	48.6290
719.90	48.6559
720.02	48.5428
720.14	48.5470
720.26	48.3846
720.38	48.6751
720.50	48.5381
720.62	48.8255
720.74	48.7781
720.85	48.4531
720.97	48.4347
721.09	48.4860
721.21	48.3984
721.33	48.5944
721.45	48.9904
721.57	49.1451
721.69	49.0223
721.81	48.8604
721.93	49.0317
722.05	49.2569
722.16	49.0662
722.28	49.1769
722.40	49.1583
722.52	49.3352
722.64	49.1314
722.76	48.9813
722.88	49.3334
723.00	49.5661
723.12	49.6054
723.24	49.4191
723.36	49.4177
723.47	49.3527
723.59	49.3140
723.71	49.1631
723.83	49.4559
723.95	49.4482
724.07	49.0541
724.19	49.2815
724.31	49.5461
724.43	49.6448
724.55	49.2115
724.66	49.7785
724.78	49.8583
724.90	49.4157
725.02	49.1850
725.14	50.0239
725.26	49.8118
725.38	49.4869
725.50	49.5705
725.62	49.8403
725.74	50.0469
725.85	50.3176
725.97	49.2494
726.09	49.5482
726.21	49.7940
726.33	49.5947
726.45	49.4906
726.57	50.8194
726.69	50.6093
726.81	50.2567
726.92	50.0172
727.04	50.0123
727.16	50.0719
727.28	50.1792
727.40	49.8258
727.52	49.7100
727.64	49.7173
727.76	49.8663
727.88	49.8335
727.99	50.1368
728.11	50.3807
728.23	50.4194
728.35	50.2091
728.47	50.0734
728.59	50.3195
728.71	50.3323
728.83	50.1390
728.94	50.0667
729.06	50.2806
729.18	50.3121
729.30	50.1876
729.42	50.2088
729.54	50.4857
729.66	50.3370
729.78	50.1663
729.90	50.5603
730.01	50.6928
730.13	50.6173
730.25	50.6227
730.37	50.7129
730.49	50.5219
730.61	50.5555
730.73	50.5945
730.84	50.7220
730.96	50.9964
731.08	51.1934
731.20	50.7301
731.32	50.8867
731.44	51.0877
731.56	50.7112
731.68	50.6029
731.79	51.2614
731.91	51.0526
732.03	51.0287
732.15	51.2683
732.27	51.0784
732.39	51.2103
732.51	51.4542
732.62	51.0917
732.74	51.0421
732.86	51.3342
732.98	51.0690
733.10	50.6863
733.22	51.1860
733.34	51.1275
733.45	51.0747
733.57	51.1043
733.69	51.2746
733.81	51.1809
733.93	51.1693
734.05	51.0962
734.17	51.2092
734.28	51.5700
734.40	51.6268
734.52	51.4508
734.64	51.5957
734.76	51.9132
734.88	51.7117
735.00	51.3014
735.11	51.7951
735.23	52.0907
735.35	51.5963
735.47	51.6647
735.59	52.0552
735.71	51.8669
735.83	51.5960
735.94	51.7492
736.06	51.6488
736.18	51.6357
736.30	51.9339
736.42	51.9894
736.54	51.5518
736.65	51.6967
736.77	51.8280
736.89	51.1704
737.01	51.4955
737.13	52.2341
737.25	52.1445
737.36	51.9940
737.48	52.6477
737.60	52.3146
737.72	51.9348
737.84	52.0968
737.96	51.9569
738.08	52.0151
738.19	52.0421
738.31	52.3611
738.43	52.2929
738.55	52.6765
738.67	52.5428
738.79	52.4939
738.90	52.6234
739.02	52.7507
739.14	52.5127
739.26	52.4011
739.38	52.6764
739.50	52.5977
739.61	52.5744
739.73	52.6417
739.85	52.5400
739.97	52.7320
740.09	52.7008
740.20	52.5678
740.32	52.8947
740.44	53.1415
740.56	52.8141
740.68	52.8473
740.80	52.7966
740.91	52.4968
741.03	52.6127
741.15	52.4743
741.27	52.4811
741.39	52.4771
741.51	52.6015
741.62	52.5776
741.74	52.8480
741.86	52.8455
741.98	53.0445
742.10	53.0375
742.21	53.1629
742.33	52.7891
742.45	52.8836
742.57	52.8277
742.69	52.9677
742.80	52.9579
742.92	53.4116
743.04	53.1205
743.16	53.4688
743.28	53.4567
743.40	53.4737
743.51	53.3429
743.63	53.6426
743.75	53.3902
743.87	53.3346
743.99	53.2864
744.10	53.5235
744.22	53.4064
744.34	53.3001
744.46	53.5663
744.58	53.3512
744.69	53.2610
744.81	53.6995
744.93	53.6624
745.05	53.2378
745.17	53.5614
745.28	53.6132
745.40	53.3907
745.52	53.5063
745.64	53.8378
745.76	53.9376
745.87	53.7118
745.99	53.8207
746.11	54.0271
746.23	54.1265
746.35	53.5196
746.46	53.6532
746.58	53.5633
746.70	53.5346
746.82	53.4957
746.94	54.1174
747.05	54.3804
747.17	54.5294
747.29	54.0553
747.41	54.2989
747.53	54.2389
747.64	53.8838
747.76	53.5744
747.88	54.1454
748.00	54.0119
748.12	54.0406
748.23	54.1039
748.35	54.1785
748.47	54.2617
748.59	54.1893
748.70	54.1598
748.82	54.2671
748.94	54.3183
749.06	54.3272
749.18	54.1413
749.29	54.1188
749.41	54.2746
749.53	54.2618
749.65	54.3484
749.76	54.6030
749.88	54.5205
750.00	54.3610
750.12	54.5823
750.24	54.6870
750.35	54.4471
750.47	54.6874
750.59	54.6370
750.71	54.8771
750.82	54.8123
750.94	55.1165
751.06	55.0780
751.18	55.2393
751.30	54.8931
751.41	54.8721
751.53	54.9242
751.65	54.7613
751.77	54.6208
751.88	55.0773
752.00	54.7841
752.12	54.6622
752.24	54.8699
752.35	54.9853
752.47	54.4954
752.59	55.0509
752.71	54.8581
752.83	55.1151
752.94	55.1892
753.06	55.3686
753.18	55.1817
753.30	55.4247
753.41	55.1482
753.53	55.0865
753.65	55.3525
753.77	55.3089
753.88	55.2440
754.00	54.9954
754.12	55.2819
754.24	55.5017
754.35	55.3238
754.47	55.2889
754.59	55.7296
754.71	55.7356
754.82	55.1571
754.94	55.3280
755.06	55.4542
755.18	55.4824
755.29	55.2378
755.41	55.5307
755.53	55.6162
755.65	55.6640
755.76	55.2060
755.88	55.3383
756.00	55.6492
756.12	55.6006
756.23	55.1572
756.35	55.5501
756.47	55.7790
756.59	55.4287
756.70	55.5975
756.82	55.9958
756.94	55.9562
757.06	55.9190
757.17	56.2425
757.29	56.0032
757.41	56.1137
757.53	56.1415
757.64	55.8931
757.76	55.5183
757.88	55.6841
758.00	55.9382
758.11	55.8865
758.23	56.1233
758.35	56.1395
758.47	56.2468
758.58	56.0562
758.70	56.3300
758.82	56.1256
758.94	56.4412
759.05	56.4071
759.17	56.0461
759.29	55.9708
759.40	56.2344
759.52	55.9583
759.64	55.7392
759.76	56.0832
759.87	56.1684
759.99	56.2947
760.11	56.4034
760.23	56.5535
760.34	56.7146
760.46	56.7007
760.58	56.3612
760.70	56.3962
760.81	56.4117
760.93	56.3401
761.05	56.4656
761.16	56.7390
761.28	56.9968
761.40	56.7879
761.52	56.7140
761.63	56.6861
761.75	56.8209
761.87	56.5827
761.98	56.9264
762.10	56.8927
762.22	57.1087
762.34	56.8823
762.45	56.3735
762.57	56.5681
762.69	56.6699
762.81	56.7608
762.92	56.7885
763.04	57.1041
763.16	57.0484
763.27	57.0541
763.39	56.5344
763.51	56.6291
763.63	57.1627
763.74	57.1291
763.86	57.2489
763.98	57.2242
764.09	57.4057
764.21	57.2429
764.33	57.1729
764.44	57.1426
764.56	57.4325
764.68	57.5775
764.80	57.2234
764.91	57.3542
765.03	57.5469
765.15	57.7708
765.26	57.3041
765.38	57.6239
765.50	57.5408
765.62	57.3473
765.73	57.3405
765.85	57.4877
765.97	57.6549
766.08	57.8417
766.20	57.8979
766.32	57.6006
766.43	57.7380
766.55	57.6309
766.67	57.5530
766.79	57.7254
766.90	58.0073
767.02	58.1573
767.14	57.5238
767.25	57.4600
767.37	57.4963
767.49	57.1098
767.60	56.7768
767.72	57.5404
767.84	57.8154
767.95	57.5673
768.07	57.7278
768.19	57.9263
768.31	57.9426
768.42	57.8082
768.54	57.7046
768.66	57.8190
768.77	58.0699
768.89	57.9969
769.01	57.7997
769.12	58.1104
769.24	58.1973
769.36	58.0727
769.47	57.8335
769.59	57.8814
769.71	57.8230
769.82	58.0562
769.94	57.7820
770.06	58.1735
770.17	58.2074
770.29	58.0610
770.41	58.0272
770.53	58.2093
770.64	57.9360
770.76	57.8682
770.88	58.4044
770.99	58.2802
771.11	58.4848
771.23	58.4268
771.34	58.5013
771.46	58.2912
771.58	58.2709
771.69	57.9670
771.81	58.4794
771.93	58.3163
772.04	58.2496
772.16	58.0481
772.28	58.3044
772.39	57.9231
772.51	58.3989
772.63	58.4870
772.74	58.0476
772.86	58.2812
772.98	58.5594
773.09	58.3472
773.21	58.2627
773.33	59.0877
773.44	58.7164
773.56	58.4119
773.68	58.7191
773.79	58.8712
773.91	58.8061
774.03	58.5875
774.14	58.9719
774.26	59.1150
774.38	58.9509
774.49	58.7300
774.61	59.1769
774.73	59.1528
774.84	58.8196
774.96	58.9626
775.08	59.0663
775.19	58.9465
775.31	59.0025
775.43	59.3038
775.54	58.9633
775.66	59.3480
775.77	59.2408
775.89	58.8989
776.01	58.6646
776.12	59.3053
776.24	59.2148
776.36	59.1666
776.47	59.1049
776.59	59.4206
776.71	59.3611
776.82	59.1833
776.94	59.0607
777.06	59.6585
777.17	59.7066
777.29	59.3754
777.41	59.4372
777.52	59.5898
777.64	59.7298
777.75	59.5743
777.87	59.4412
777.99	59.4608
778.10	59.7543
778.22	59.5311
778.34	59.3019
778.45	59.6121
778.57	59.7517
778.69	59.3508
778.80	59.4089
778.92	59.8475
779.04	59.8665
779.15	59.6754
779.27	59.8691
779.38	59.9990
779.50	59.7746
779.62	60.1986
779.73	59.7241
779.85	60.0967
779.97	60.1793
780.08	59.9888
780.20	59.4254
780.31	60.1196
780.43	60.1423
780.55	59.6758
780.66	59.3073
780.78	59.8549
780.90	60.0407
781.01	60.0595
781.13	59.8364
781.25	60.5981
781.36	60.3688
781.48	59.7795
781.59	59.5353
781.71	60.3111
781.83	60.5195
781.94	60.0692
782.06	60.4963
782.18	61.2575
782.29	60.6899
782.41	60.2244
782.52	60.7286
782.64	60.8951
782.76	60.9185
782.87	60.7217
782.99	60.2470
783.10	60.5736
783.22	60.4765
783.34	59.8483
783.45	60.4849
783.57	60.9049
783.69	60.1480
783.80	60.0508
783.92	60.2813
784.03	60.0450
784.15	60.3200
784.27	60.6508
784.38	60.5389
784.50	60.5493
784.61	60.7259
784.73	60.8503
784.85	60.5691
784.96	60.5074
785.08	60.4019
785.19	60.6314
785.31	60.6349
785.43	60.6031
785.54	60.6311
785.66	60.3385
785.77	60.4346
785.89	60.2265
786.01	60.5259
786.12	60.3596
786.24	60.6212
786.35	60.3991
786.47	60.7837
786.59	60.8115
786.70	61.2408
786.82	61.2765
786.93	61.1791
787.05	61.0337
787.17	61.3204
787.28	61.2430
787.40	61.2886
787.51	61.7809
787.63	61.5391
787.75	61.1717
787.86	61.3847
787.98	61.4186
788.09	60.7169
788.21	60.7994
788.33	61.4289
788.44	61.1567
788.56	61.4093
788.67	61.6473
788.79	62.0028
788.91	62.0138
789.02	61.7253
789.14	61.3804
789.25	61.6619
789.37	61.4058
789.48	61.2826
789.60	61.5092
789.72	61.3296
789.83	61.5242
789.95	61.8558
790.06	61.2974
790.18	61.3374
790.30	61.6248
790.41	61.3614
790.53	61.2583
790.64	61.5545
790.76	61.8155
790.87	61.7460
790.99	61.7762
791.11	61.7526
791.22	61.6090
791.34	61.5074
791.45	61.7319
791.57	61.7766
791.68	61.2487
791.80	61.4505
791.92	61.7747
792.03	61.7693
792.15	61.8128
792.26	62.0442
792.38	62.0044
792.49	61.9422
792.61	62.0755
792.73	62.5696
792.84	64.4166
792.96	59.6558
793.07	60.2275
793.19	61.1927
793.30	61.3446
793.42	60.2394
793.54	64.1375
793.65	63.7679
793.77	63.1493
793.88	62.2575
794.00	61.9192
794.11	62.6281
794.23	62.7654
794.34	62.9151
794.46	62.3264
794.58	61.7746
794.69	62.7787
794.81	63.0349
794.92	61.7457
795.04	62.2053
795.15	62.6444
795.27	62.3377
795.39	61.8798
795.50	62.7126
795.62	63.1620
795.73	63.0245
795.85	62.2460
795.96	62.4809
796.08	62.5414
796.19	62.6908
796.31	62.9114
796.42	63.0298
796.54	63.0536
796.66	63.3624
796.77	62.4345
796.89	62.8492
797.00	63.3433
797.12	62.7746
797.23	62.1737
797.35	62.6148
797.46	62.0824
797.58	62.1961
797.69	62.5118
797.81	62.9472
797.93	63.3718
798.04	63.1150
798.16	63.1485
798.27	63.3041
798.39	63.3491
798.50	63.4054
798.62	63.1494
798.73	63.1733
798.85	63.0485
798.96	62.4563
799.08	62.2503
799.19	63.0418
799.31	63.3039
799.43	63.2397
799.54	63.1727
799.66	63.4227
799.77	63.9409
799.89	63.5684
800.00	63.0426
800.12	62.8259
800.23	63.0893
800.35	62.9086
800.46	62.5131
800.58	62.9632
800.69	63.7300
800.81	62.8536
800.92	62.7574
801.04	63.4533
801.16	63.7307
801.27	63.6874
801.39	64.2874
801.50	63.6453
801.62	63.1342
801.73	63.6083
801.85	63.3844
801.96	62.8963
802.08	63.8304
802.19	64.2994
802.31	63.2485
802.42	63.3228
802.54	64.1753
802.65	63.3712
802.77	63.8351
802.88	63.7075
803.00	64.1291
803.11	63.8873
803.23	64.0642
803.34	63.7338
803.46	63.9866
803.57	64.1187
803.69	63.6210
803.80	63.9991
803.92	63.8385
804.03	64.0524
804.15	63.5864
804.26	64.3543
804.38	64.0071
804.50	63.6864
804.61	63.7535
804.73	64.4973
804.84	64.0748
804.96	64.4134
805.07	64.4895
805.19	64.2779
805.30	63.8002
805.42	63.8486
805.53	63.9381
805.65	64.3198
805.76	64.5032
805.88	64.1614
805.99	64.3601
806.11	64.0892
806.22	63.8612
806.34	64.0602
806.45	63.9021
806.57	64.1536
806.68	64.0811
806.80	63.9834
806.91	64.3821
807.03	65.0616
807.14	64.8397
807.26	64.6368
807.37	65.2683
807.49	64.6109
807.60	63.8436
807.72	63.9444
807.83	64.4318
807.95	63.8942
808.06	63.8149
808.17	64.6323
808.29	64.2784
808.40	63.9036
808.52	63.7646
808.63	64.3191
808.75	63.9400
808.86	64.2047
808.98	64.2322
809.09	64.5840
809.21	64.2219
809.32	65.0391
809.44	64.7058
809.55	65.3533
809.67	64.9128
809.78	64.5931
809.90	64.2576
810.01	63.7934
810.13	63.7856
810.24	64.5734
810.36	65.2399
810.47	64.6380
810.59	64.5949
810.70	64.5805
810.82	64.2979
810.93	64.2485
811.05	64.7435
811.16	65.2267
811.27	63.9710
811.39	64.3388
811.50	65.3179
811.62	64.8708
811.73	64.9326
811.85	65.7413
811.96	65.3608
812.08	64.4860
812.19	65.0036
812.31	65.8184
812.42	65.8268
812.54	65.4796
812.65	65.4382
812.77	65.2574
812.88	64.6752
813.00	65.5156
813.11	66.1715
813.22	66.6023
813.34	65.8480
813.45	65.0971
813.57	64.9988
813.68	65.6493
813.80	65.7393
813.91	65.3805
814.03	66.6490
814.14	66.0412
814.26	64.8802
814.37	64.8345
814.49	66.1541
814.60	65.2611
814.71	65.8067
814.83	65.9978
814.94	65.1909
815.06	65.4554
815.17	66.7476
815.29	64.7853
815.40	64.9878
815.52	65.9950
815.63	65.2749
815.75	65.3813
815.86	66.8583
815.97	66.1236
816.09	65.2999
816.20	66.9797
816.32	65.9978
816.43	66.5036
816.55	65.7053
816.66	66.4993
816.78	65.5229
816.89	66.2753
817.00	66.8067
817.12	67.6065
817.23	67.3736
817.35	68.4077
817.46	66.5713
817.58	66.2124
817.69	67.0449
817.81	66.7459
817.92	65.2996
818.03	67.2640
818.15	67.3949
818.26	67.0779
818.38	71.1080
818.49	77.1171
818.61	55.8590
818.72	56.5723
818.83	63.0029
818.95	60.0591
819.06	53.0648
819.18	75.6208
819.29	73.8286
819.41	66.9561
819.52	65.8194
819.64	67.6219
819.75	67.5721
819.86	66.4503
819.98	66.8165
820.09	67.9814
820.21	66.3004
820.32	64.6106
820.44	67.6081
820.55	67.5444
820.66	66.8662
820.78	67.2464
820.89	69.1785
821.01	67.3431
821.12	69.0168
821.23	66.6558
821.35	66.3278
821.46	67.6715
821.58	69.2367
821.69	66.0090
821.81	67.4556
821.92	66.6489
822.03	66.9659
822.15	66.8897
822.26	67.1416
822.38	67.3621
822.49	68.9996
822.61	66.0274
822.72	65.3715
822.83	68.8068
822.95	67.9621
823.06	65.8121
823.18	66.9018
823.29	67.9923
823.40	70.4576
823.52	66.6182
823.63	69.0663
823.75	73.3543
823.86	68.8521
823.97	66.7941
824.09	71.6434
824.20	72.8995
824.32	68.4509
824.43	66.9770
824.55	67.6332
824.66	69.8197
824.77	65.3779
824.89	67.0309
825.00	69.9144
825.12	69.3107
825.23	71.1332
825.34	69.7712
825.46	68.8294
825.57	75.4970
825.69	72.0572
825.80	70.4839
825.91	71.8563
826.03	74.7591
826.14	68.6549
826.26	69.7059
826.37	66.5686
826.48	75.3405
826.60	71.4682
826.71	72.6036
826.83	65.7560
826.94	63.8517
827.05	63.3966
827.17	67.2255
827.28	72.2274
827.39	78.5609
827.51	82.7794
827.62	81.2163
827.74	87.7386
827.85	87.0785
827.96	70.3602
828.08	83.1573
828.19	115.9760
828.31	98.3478
828.42	84.0000
828.53	100.4479
828.65	7.0662
828.76	0.0000
828.87	0.0000
828.99	0.0000
