Wavelength (nm)	Reflectance (%)
377.35	0.0000
377.48	0.0000
377.62	0.0000
377.75	0.0000
377.88	0.0000
378.02	0.0000
378.15	200.0000
378.28	76.7000
378.41	0.0000
378.55	200.0000
378.68	128.9000
378.81	200.0000
378.95	200.0000
379.08	200.0000
379.21	200.0000
379.35	2.5806
379.48	109.1163
379.61	122.6207
379.74	68.0791
379.88	0.0000
380.01	17.2371
380.14	44.5376
380.28	0.0000
380.41	0.0000
380.54	82.1804
380.68	82.2045
380.81	37.3003
380.94	21.8937
381.07	51.1603
381.21	55.3429
381.34	0.0000
381.47	12.9886
381.61	77.3925
381.74	57.1377
381.87	0.0000
382.00	47.4796
382.14	72.0148
382.27	6.4457
382.40	0.0000
382.54	37.4976
382.67	44.6677
382.80	8.7188
382.93	30.8982
383.07	42.4175
383.20	40.2583
383.33	66.4164
383.47	27.4534
383.60	26.5556
383.73	55.7531
383.86	52.1393
384.00	7.6830
384.13	45.7840
384.26	57.3966
384.40	27.9452
384.53	12.4640
384.66	30.3955
384.79	47.2546
384.93	36.3681
385.06	13.6554
385.19	17.2507
385.33	20.3558
385.46	0.0000
385.59	9.8440
385.72	44.7667
385.86	34.3951
385.99	33.6366
386.12	34.3399
386.25	6.8861
386.39	15.4574
386.52	32.9340
386.65	26.1448
386.79	5.2644
386.92	39.5475
387.05	47.8253
387.18	23.3716
387.32	16.5124
387.45	57.9707
387.58	49.2754
387.71	31.2079
387.85	36.4798
387.98	34.7642
388.11	32.8096
388.25	16.9624
388.38	5.6753
388.51	14.7313
388.64	37.1990
388.78	36.8930
388.91	10.5348
389.04	32.4028
389.17	27.4211
389.31	0.0000
389.44	0.0000
389.57	21.2585
389.70	19.1452
389.84	25.4215
389.97	27.9329
390.10	33.4675
390.24	35.9294
390.37	14.4018
390.50	11.4822
390.63	18.3710
390.77	11.6532
390.90	13.7934
391.03	31.2237
391.16	24.7506
391.30	28.4185
391.43	44.0172
391.56	22.2004
391.69	25.7247
391.83	42.7082
391.96	19.3998
392.09	8.1847
392.22	36.9182
392.36	37.4973
392.49	6.6609
392.62	9.5066
392.75	19.2774
392.89	12.7320
393.02	18.5759
393.15	7.6780
393.28	32.5403
393.42	24.4324
393.55	25.1640
393.68	13.9640
393.81	38.2991
393.95	37.0923
394.08	32.3578
394.21	22.9261
394.34	21.7012
394.48	24.0218
394.61	14.2769
394.74	20.0591
394.87	18.4767
395.01	36.7512
395.14	21.8398
395.27	9.0032
395.40	18.1609
395.54	24.7439
395.67	1.7194
395.80	15.0216
395.93	30.3755
396.07	29.2371
396.20	24.8726
396.33	27.9043
396.46	30.8935
396.59	37.6800
396.73	20.0969
396.86	18.8395
396.99	37.7739
397.12	53.5858
397.26	4.3607
397.39	10.6414
397.52	30.4281
397.65	23.2593
397.79	0.0000
397.92	38.9160
398.05	49.7416
398.18	26.4349
398.32	15.1074
398.45	20.8739
398.58	26.3109
398.71	18.0994
398.84	15.4976
398.98	14.1692
399.11	19.8916
399.24	13.7360
399.37	13.7494
399.51	19.1664
399.64	20.5659
399.77	17.9936
399.90	23.6125
400.03	14.0613
400.17	8.8012
400.30	11.5839
400.43	13.5147
400.56	7.2356
400.70	22.1162
400.83	28.1715
400.96	29.0758
401.09	21.8333
401.23	24.6327
401.36	19.7034
401.49	19.6092
401.62	23.0221
401.75	30.1667
401.89	21.8949
402.02	18.8592
402.15	18.3978
402.28	19.1390
402.41	21.9293
402.55	14.4168
402.68	12.8401
402.81	19.3471
402.94	21.4523
403.08	11.9973
403.21	17.4825
403.34	28.2186
403.47	19.5873
403.60	8.6641
403.74	17.0320
403.87	20.7500
404.00	19.4537
404.13	26.5447
404.26	25.9946
404.40	22.6841
404.53	29.0202
404.66	16.7391
404.79	11.5000
404.93	25.5970
405.06	23.8751
405.19	14.1604
405.32	18.1182
405.45	25.7604
405.59	27.2531
405.72	5.5280
405.85	16.2225
405.98	26.9366
406.11	20.6760
406.25	4.4887
406.38	25.3427
406.51	22.8379
406.64	18.7953
406.77	14.7759
406.91	21.9537
407.04	23.9152
407.17	22.4991
407.30	10.4238
407.43	7.7712
407.57	13.6358
407.70	14.5317
407.83	17.1050
407.96	13.6596
408.09	24.4834
408.23	25.8761
408.36	10.4041
408.49	4.7380
408.62	23.1788
408.75	17.1962
408.89	11.2126
409.02	16.3276
409.15	16.1569
409.28	19.5760
409.41	7.4581
409.55	6.7245
409.68	22.7370
409.81	19.1966
409.94	9.0644
410.07	25.1987
410.20	24.6677
410.34	14.6208
410.47	13.2103
410.60	18.1938
410.73	14.3354
410.86	17.5111
411.00	18.6967
411.13	22.7229
411.26	15.5066
411.39	16.1476
411.52	12.4216
411.66	14.2676
411.79	11.8470
411.92	16.9063
412.05	16.7930
412.18	11.8238
412.31	6.3029
412.45	16.6299
412.58	14.4209
412.71	7.1873
412.84	15.6584
412.97	22.5163
413.11	12.9205
413.24	2.2549
413.37	12.0479
413.50	14.5648
413.63	7.9584
413.76	8.5550
413.90	21.7829
414.03	20.0874
414.16	17.1612
414.29	10.0046
414.42	15.2982
414.56	12.9505
414.69	12.6628
414.82	8.5699
414.95	16.5928
415.08	9.5550
415.21	19.3460
415.35	13.5326
415.48	8.7622
415.61	20.7863
415.74	27.0637
415.87	4.0671
416.00	11.3218
416.14	23.8325
416.27	14.5471
416.40	8.8474
416.53	21.2381
416.66	23.2952
416.79	14.4722
416.93	13.9174
417.06	15.3257
417.19	16.9126
417.32	18.5740
417.45	13.9009
417.58	15.8582
417.72	16.9984
417.85	11.8943
417.98	8.3819
418.11	15.7868
418.24	13.1927
418.37	12.3702
418.51	8.6824
418.64	7.4971
418.77	12.8931
418.90	12.8069
419.03	8.2159
419.16	19.2496
419.29	26.8457
419.43	11.0777
419.56	10.3475
419.69	20.3973
419.82	17.7108
419.95	8.6674
420.08	10.2417
420.22	9.5423
420.35	5.9340
420.48	9.0885
420.61	5.9196
420.74	15.8926
420.87	20.9045
421.00	16.4830
421.14	7.9985
421.27	13.5893
421.40	13.1416
421.53	10.7164
421.66	13.2784
421.79	16.7273
421.93	19.0564
422.06	14.1646
422.19	10.5093
422.32	10.9213
422.45	15.3986
422.58	10.2521
422.71	8.6378
422.85	15.1188
422.98	17.4410
423.11	13.4185
423.24	15.4837
423.37	16.6858
423.50	13.1646
423.63	12.2108
423.77	10.3319
423.90	6.1394
424.03	7.8864
424.16	11.6394
424.29	10.7371
424.42	13.9512
424.55	14.3440
424.69	13.7494
424.82	13.5483
424.95	9.0669
425.08	9.0726
425.21	11.1407
425.34	9.7773
425.47	9.3182
425.60	12.9854
425.74	10.5041
425.87	9.3963
426.00	13.4998
426.13	12.1739
426.26	12.9891
426.39	9.6055
426.52	12.2425
426.66	17.7274
426.79	10.0222
426.92	5.8889
427.05	13.3882
427.18	13.7414
427.31	9.0772
427.44	13.5511
427.57	19.1463
427.71	17.4046
427.84	11.8126
427.97	8.9802
428.10	14.1285
428.23	20.7044
428.36	10.8587
428.49	8.8875
428.62	11.5234
428.76	14.3452
428.89	6.9387
429.02	8.5950
429.15	17.3684
429.28	17.2911
429.41	12.6808
429.54	8.2040
429.67	15.3967
429.81	14.7421
429.94	10.4770
430.07	4.3895
430.20	9.7608
430.33	10.3772
430.46	6.9938
430.59	11.5702
430.72	15.8106
430.85	15.2366
430.99	11.0860
431.12	9.0677
431.25	9.4444
431.38	12.6550
431.51	6.6163
431.64	6.1674
431.77	10.3227
431.90	11.2119
432.03	7.7289
432.17	10.6212
432.30	14.8877
432.43	13.6428
432.56	9.7394
432.69	7.1412
432.82	8.4029
432.95	7.8926
433.08	8.5203
433.21	9.0824
433.35	14.0533
433.48	13.1194
433.61	13.4809
433.74	10.7260
433.87	12.3202
434.00	11.0954
434.13	11.1113
434.26	9.2027
434.39	12.7603
434.53	12.6861
434.66	14.2441
434.79	11.2628
434.92	14.9227
435.05	14.6332
435.18	9.9336
435.31	7.6381
435.44	12.2716
435.57	13.3773
435.70	10.7095
435.84	7.8314
435.97	11.0268
436.10	13.0319
436.23	10.0331
436.36	11.9032
436.49	18.2798
436.62	13.8141
436.75	10.6019
436.88	11.3205
437.01	14.3574
437.14	14.7680
437.28	12.5441
437.41	10.7712
437.54	12.9357
437.67	15.2801
437.80	6.8704
437.93	8.5521
438.06	14.6761
438.19	14.5247
438.32	8.8683
438.45	12.7725
438.58	14.3032
438.72	12.9145
438.85	10.5744
438.98	8.9776
439.11	10.8473
439.24	11.6836
439.37	6.6691
439.50	7.3380
439.63	11.3379
439.76	13.7293
439.89	12.8188
440.02	11.6773
440.15	11.7360
440.29	13.5075
440.42	10.4522
440.55	6.0297
440.68	12.1410
440.81	13.5702
440.94	6.4427
441.07	8.1189
441.20	15.2228
441.33	13.1099
441.46	10.5085
441.59	14.1934
441.72	14.7374
441.85	12.5983
441.99	9.7148
442.12	9.7372
442.25	9.2029
442.38	11.5684
442.51	10.6963
442.64	11.7083
442.77	12.5972
442.90	13.7023
443.03	10.5374
443.16	8.3812
443.29	10.4329
443.42	8.8377
443.55	9.9278
443.68	10.4003
443.82	13.3115
443.95	11.4875
444.08	13.0724
444.21	11.3929
444.34	11.4886
444.47	11.2469
444.60	12.9768
444.73	9.4367
444.86	8.8114
444.99	9.4183
445.12	9.9027
445.25	7.3815
445.38	8.6397
445.51	11.0151
445.64	14.6286
445.78	8.8418
445.91	8.8782
446.04	13.9485
446.17	10.8307
446.30	5.6823
446.43	12.7883
446.56	15.9345
446.69	10.2598
446.82	9.6612
446.95	11.6204
447.08	11.6894
447.21	9.3247
447.34	10.6344
447.47	13.5077
447.60	11.3000
447.73	10.4370
447.86	11.9479
447.99	11.7360
448.13	12.0022
448.26	12.1988
448.39	10.1609
448.52	10.0169
448.65	11.4033
448.78	9.1586
448.91	11.7788
449.04	12.3497
449.17	11.8366
449.30	12.1840
449.43	10.8648
449.56	10.1639
449.69	13.9139
449.82	11.5620
449.95	9.5974
450.08	12.8122
450.21	13.2920
450.34	9.1800
450.47	11.5873
450.60	13.4971
450.73	13.5728
450.87	11.7686
451.00	7.3833
451.13	9.5264
451.26	8.8869
451.39	8.0724
451.52	9.1046
451.65	15.0851
451.78	15.1570
451.91	12.1384
452.04	9.6074
452.17	11.1615
452.30	11.0741
452.43	6.9874
452.56	11.1868
452.69	11.2003
452.82	10.0300
452.95	11.4632
453.08	11.3346
453.21	11.6826
453.34	13.4587
453.47	10.1258
453.60	8.4622
453.73	11.0661
453.86	9.4133
453.99	10.0762
454.12	11.8291
454.25	12.1127
454.38	10.8443
454.52	10.5799
454.65	11.1402
454.78	11.0563
454.91	10.7947
455.04	11.9779
455.17	9.5656
455.30	9.4894
455.43	12.7857
455.56	10.7060
455.69	9.1051
455.82	12.4475
455.95	11.9287
456.08	9.6932
456.21	12.1796
456.34	12.2333
456.47	11.6664
456.60	11.4657
456.73	9.8640
456.86	10.2131
456.99	11.9702
457.12	10.1544
457.25	9.5129
457.38	10.8683
457.51	10.3638
457.64	9.7096
457.77	11.9813
457.90	12.9909
458.03	12.4123
458.16	11.4140
458.29	11.9078
458.42	11.6966
458.55	11.9410
458.68	10.7014
458.81	7.8119
458.94	9.7163
459.07	11.6258
459.20	9.9391
459.33	9.7486
459.46	12.8014
459.59	12.3779
459.72	8.2150
459.85	8.7354
459.98	11.0038
460.11	12.9615
460.24	9.1138
460.37	10.4423
460.50	11.6730
460.63	11.8506
460.76	9.4132
460.89	10.5226
461.02	11.8222
461.15	11.7162
461.28	8.7419
461.41	10.6663
461.54	11.9212
461.67	9.9087
461.80	9.2482
461.93	10.8600
462.06	10.6848
462.19	11.0110
462.32	11.2078
462.45	11.5324
462.58	11.8328
462.71	11.8252
462.84	10.7477
462.97	11.1451
463.10	9.7058
463.23	9.8551
463.36	10.1368
463.49	9.2487
463.62	9.3332
463.75	10.7770
463.88	12.4232
464.01	8.7252
464.14	10.4486
464.27	11.7432
464.40	11.0421
464.53	9.5110
464.66	11.2232
464.79	11.3089
464.92	10.1035
465.05	10.2591
465.18	10.1952
465.31	11.6335
465.44	11.4740
465.57	9.1046
465.70	9.7857
465.83	11.7081
465.96	9.7078
466.09	8.6353
466.22	11.9807
466.35	12.1008
466.48	10.8317
466.61	11.3488
466.74	11.4076
466.87	10.6380
467.00	9.5172
467.13	10.3666
467.26	12.0756
467.39	12.6226
467.52	10.8428
467.65	11.7974
467.78	10.4036
467.91	9.1616
468.04	8.8546
468.17	11.2431
468.30	11.2696
468.43	10.5539
468.56	9.5554
468.69	10.7532
468.82	10.4362
468.95	10.5933
469.08	11.5915
469.21	11.1227
469.34	9.2556
469.47	9.6857
469.60	9.2740
469.73	8.3270
469.86	10.8463
469.99	12.3677
470.11	10.8556
470.24	10.6619
470.37	12.2255
470.50	11.8805
470.63	10.8756
470.76	9.7626
470.89	11.2772
471.02	11.6390
471.15	9.2185
471.28	9.2535
471.41	11.7085
471.54	11.7749
471.67	9.7621
471.80	10.9560
471.93	11.8993
472.06	12.4885
472.19	9.5630
472.32	9.9971
472.45	10.7679
472.58	10.2873
472.71	9.5895
472.84	11.5188
472.97	10.9152
473.10	11.8998
473.23	11.2312
473.36	10.4879
473.49	10.0926
473.62	10.5516
473.74	9.9406
473.87	11.1788
474.00	10.9766
474.13	10.1721
474.26	11.0646
474.39	10.7110
474.52	9.9578
474.65	11.7067
474.78	12.6261
474.91	10.6781
475.04	10.7029
475.17	11.2657
475.30	9.4156
475.43	9.3589
475.56	10.8370
475.69	11.4022
475.82	10.3923
475.95	11.3695
476.08	11.0797
476.21	10.9935
476.34	9.2464
476.46	10.2407
476.59	10.1300
476.72	11.0274
476.85	10.1259
476.98	10.6634
477.11	11.0343
477.24	10.7183
477.37	9.2284
477.50	10.3539
477.63	11.1929
477.76	10.5144
477.89	10.1279
478.02	10.9098
478.15	10.6305
478.28	10.4306
478.41	9.7626
478.54	10.2748
478.66	10.4448
478.79	10.6344
478.92	9.9744
479.05	10.6493
479.18	10.4709
479.31	10.4113
479.44	10.5148
479.57	10.6742
479.70	11.1852
479.83	11.7505
479.96	10.5477
480.09	9.9428
480.22	10.3791
480.35	10.0663
480.48	10.0906
480.60	10.8029
480.73	11.5020
480.86	11.5328
480.99	11.3054
481.12	10.1022
481.25	10.8009
481.38	10.7907
481.51	10.2632
481.64	10.3756
481.77	11.2002
481.90	11.0935
482.03	10.3575
482.16	10.6603
482.29	10.4584
482.41	10.8439
482.54	10.6210
482.67	10.7570
482.80	11.4921
482.93	10.9436
483.06	10.2935
483.19	10.6868
483.32	11.3206
483.45	10.2390
483.58	10.5226
483.71	10.5610
483.84	10.2107
483.97	10.1175
484.09	10.4889
484.22	11.0931
484.35	11.3077
484.48	11.1788
484.61	10.9286
484.74	11.1972
484.87	10.5521
485.00	10.8541
485.13	10.9165
485.26	11.2596
485.39	10.4449
485.52	10.5731
485.64	9.9365
485.77	10.5242
485.90	10.1496
486.03	10.9760
486.16	11.2080
486.29	11.3164
486.42	10.9855
486.55	10.8314
486.68	10.5407
486.81	10.8280
486.94	10.7676
487.06	10.5229
487.19	10.9678
487.32	11.1035
487.45	10.7483
487.58	11.3490
487.71	11.0982
487.84	10.3351
487.97	10.2924
488.10	10.6390
488.23	9.9921
488.35	10.4744
488.48	11.1236
488.61	11.3572
488.74	11.2173
488.87	10.9562
489.00	10.9087
489.13	11.1553
489.26	10.8969
489.39	10.7901
489.52	11.4173
489.64	11.3365
489.77	11.2833
489.90	11.3122
490.03	11.3283
490.16	11.2497
490.29	10.9925
490.42	10.9744
490.55	11.0173
490.68	11.5409
490.81	11.0242
490.93	11.2777
491.06	11.0669
491.19	10.5076
491.32	10.3435
491.45	10.8341
491.58	10.9830
491.71	11.4258
491.84	11.5319
491.97	11.1980
492.09	11.5010
492.22	11.1502
492.35	11.0103
492.48	11.6418
492.61	11.4786
492.74	11.0837
492.87	11.5188
493.00	11.2249
493.12	10.7900
493.25	11.1048
493.38	11.6116
493.51	11.3855
493.64	11.3767
493.77	11.7026
493.90	11.2824
494.03	10.6380
494.16	11.1215
494.28	11.7677
494.41	10.9807
494.54	10.9589
494.67	11.7631
494.80	11.3157
494.93	10.7337
495.06	11.4793
495.19	11.9916
495.31	11.7605
495.44	11.4898
495.57	11.6580
495.70	12.0779
495.83	12.1035
495.96	11.5467
496.09	11.4856
496.22	12.0107
496.34	11.7265
496.47	11.3288
496.60	11.3993
496.73	12.0434
496.86	11.3677
496.99	11.6138
497.12	11.6818
497.24	11.7988
497.37	11.8142
497.50	12.2193
497.63	11.3254
497.76	11.1820
497.89	12.1591
498.02	12.0756
498.15	11.5494
498.27	11.7510
498.40	12.0081
498.53	11.0507
498.66	11.2659
498.79	11.4101
498.92	11.7961
499.05	11.9615
499.17	11.6076
499.30	11.0978
499.43	11.6829
499.56	11.3748
499.69	11.2801
499.82	12.0808
499.95	12.4337
500.07	12.0777
500.20	11.5919
500.33	11.8972
500.46	11.9789
500.59	11.7507
500.72	11.4984
500.85	12.0044
500.97	12.1450
501.10	11.8880
501.23	11.4912
501.36	11.7101
501.49	12.0073
501.62	11.2213
501.75	11.5896
501.87	11.8472
502.00	11.5561
502.13	11.5816
502.26	11.9179
502.39	11.7891
502.52	12.0625
502.64	11.9655
502.77	11.7910
502.90	12.0395
503.03	12.0100
503.16	11.5983
503.29	11.9537
503.42	12.1791
503.54	12.0278
503.67	11.4337
503.80	12.1303
503.93	12.2762
504.06	11.7970
504.19	11.8098
504.31	12.1215
504.44	11.6262
504.57	11.8478
504.70	12.1145
504.83	12.2704
504.96	12.5216
505.08	12.1833
505.21	11.8085
505.34	12.0650
505.47	11.8740
505.60	11.8174
505.73	11.5910
505.85	11.8910
505.98	12.1346
506.11	12.4020
506.24	12.3048
506.37	12.7224
506.50	12.6648
506.62	12.4870
506.75	11.9863
506.88	12.1568
507.01	12.4446
507.14	12.3861
507.27	12.3737
507.39	12.6681
507.52	12.3200
507.65	12.7604
507.78	12.5127
507.91	12.1083
508.04	12.0955
508.16	12.3668
508.29	12.2243
508.42	12.5616
508.55	12.3205
508.68	12.5341
508.81	12.7210
508.93	12.3527
509.06	12.1432
509.19	12.5824
509.32	12.3184
509.45	12.2465
509.57	12.2778
509.70	12.5230
509.83	12.5878
509.96	12.6644
510.09	12.6481
510.22	12.9279
510.34	12.2010
510.47	12.2177
510.60	12.1650
510.73	12.1620
510.86	12.2310
510.98	12.5865
511.11	12.4677
511.24	12.7274
511.37	12.6215
511.50	12.4386
511.63	12.7264
511.75	12.7733
511.88	12.6308
512.01	12.5031
512.14	12.5196
512.27	12.3977
512.39	12.4506
512.52	12.6736
512.65	12.8103
512.78	12.7290
512.91	12.5741
513.03	12.5019
513.16	12.3570
513.29	12.5250
513.42	12.3226
513.55	12.7917
513.67	13.0335
513.80	13.0210
513.93	12.7596
514.06	13.0049
514.19	12.6147
514.31	12.7440
514.44	12.7255
514.57	12.5024
514.70	12.8140
514.83	13.0693
514.95	12.7230
515.08	12.6975
515.21	13.0523
515.34	13.0110
515.47	12.9134
515.59	13.0398
515.72	12.8591
515.85	13.0340
515.98	12.9059
516.11	12.7762
516.23	12.9514
516.36	13.4250
516.49	13.0802
516.62	12.7842
516.75	13.3446
516.87	13.1995
517.00	12.6899
517.13	12.8320
517.26	13.5879
517.39	13.1899
517.51	12.7660
517.64	13.1985
517.77	13.1847
517.90	12.7377
518.02	13.1473
518.15	13.5131
518.28	13.1954
518.41	13.1612
518.54	13.2609
518.66	13.0158
518.79	13.1826
518.92	13.2302
519.05	13.0202
519.18	13.0384
519.30	13.0552
519.43	13.0237
519.56	12.7678
519.69	13.1499
519.81	13.3353
519.94	13.3427
520.07	13.2265
520.20	13.3307
520.33	13.3752
520.45	13.0951
520.58	12.8321
520.71	12.9110
520.84	13.3500
520.96	13.4377
521.09	13.2651
521.22	13.3227
521.35	13.6123
521.48	13.6767
521.60	13.4555
521.73	13.3556
521.86	13.6671
521.99	13.6272
522.11	13.3816
522.24	13.4394
522.37	13.3941
522.50	13.5009
522.62	13.2523
522.75	13.4112
522.88	13.3750
523.01	13.6117
523.14	13.0813
523.26	13.5120
523.39	13.1675
523.52	13.2214
523.65	13.5068
523.77	13.9131
523.90	13.5736
524.03	13.8906
524.16	13.9250
524.28	13.7129
524.41	13.7845
524.54	13.8792
524.67	13.7158
524.79	13.4278
524.92	13.8024
525.05	13.6578
525.18	13.8808
525.31	13.3920
525.43	13.9347
525.56	14.1518
525.69	13.9332
525.82	13.5189
525.94	14.3310
526.07	14.2602
526.20	13.4293
526.33	13.4664
526.45	13.7552
526.58	13.6913
526.71	13.5425
526.84	14.0777
526.96	14.2559
527.09	14.2243
527.22	14.4451
527.35	14.1389
527.47	14.2272
527.60	14.1884
527.73	14.0429
527.86	13.6861
527.98	14.1029
528.11	13.7411
528.24	14.0384
528.37	14.0878
528.49	13.9025
528.62	14.1112
528.75	14.2504
528.88	13.8989
529.00	14.1267
529.13	14.5831
529.26	13.9619
529.39	13.7329
529.51	14.2509
529.64	14.1544
529.77	13.9469
529.90	14.3282
530.02	14.7717
530.15	14.4639
530.28	14.3479
530.40	14.2318
530.53	14.3766
530.66	14.1678
530.79	14.2134
530.91	14.2566
531.04	14.4340
531.17	14.3638
531.30	14.4280
531.42	14.0353
531.55	14.2308
531.68	14.2647
531.81	14.1804
531.93	14.3210
532.06	14.6874
532.19	14.4950
532.31	14.3262
532.44	14.5620
532.57	14.5219
532.70	14.4065
532.82	14.2565
532.95	14.3995
533.08	14.4296
533.21	14.5069
533.33	14.7469
533.46	14.4977
533.59	14.5685
533.71	14.5636
533.84	14.5057
533.97	14.5331
534.10	14.9731
534.22	14.8596
534.35	14.5424
534.48	14.7020
534.61	14.7652
534.73	14.6980
534.86	14.5700
534.99	14.7492
535.11	14.5864
535.24	14.5959
535.37	14.8854
535.50	14.8310
535.62	14.7831
535.75	14.8729
535.88	14.7387
536.00	14.5838
536.13	14.9310
536.26	15.1951
536.39	14.9036
536.51	14.9622
536.64	15.0529
536.77	15.0190
536.89	14.8314
537.02	15.0081
537.15	14.8766
537.28	14.9381
537.40	14.7672
537.53	14.7216
537.66	14.9211
537.78	15.1212
537.91	14.9725
538.04	15.3283
538.17	15.2345
538.29	14.8847
538.42	14.7791
538.55	15.0817
538.67	14.9368
538.80	15.2441
538.93	15.2282
539.05	15.1391
539.18	14.8794
539.31	15.2170
539.44	15.0557
539.56	15.2562
539.69	15.5484
539.82	15.7351
539.94	15.1056
540.07	15.2947
540.20	15.4141
540.32	15.3235
540.45	14.9376
540.58	15.5414
540.71	15.6481
540.83	15.6932
540.96	15.4140
541.09	15.5013
541.21	15.6697
541.34	15.7760
541.47	15.6008
541.59	15.4358
541.72	15.6746
541.85	15.6597
541.98	15.5326
542.10	15.1239
542.23	15.5756
542.36	15.6112
542.48	15.4117
542.61	15.2759
542.74	15.7481
542.86	15.7631
542.99	15.6213
543.12	15.6830
543.24	15.6310
543.37	15.6705
543.50	15.6607
543.62	15.8532
543.75	15.6702
543.88	15.6537
544.01	15.5801
544.13	15.7141
544.26	15.7167
544.39	15.8021
544.51	15.7609
544.64	15.8981
544.77	15.7268
544.89	15.8097
545.02	15.4566
545.15	15.4385
545.27	15.3538
545.40	15.2560
545.53	15.3984
545.65	15.8295
545.78	15.9751
545.91	15.8987
546.03	16.1268
546.16	15.9767
546.29	15.9083
546.41	16.1414
546.54	16.1806
546.67	15.8624
546.79	16.0413
546.92	15.9956
547.05	15.9372
547.17	15.9505
547.30	16.3444
547.43	16.0156
547.56	16.1753
547.68	15.9236
547.81	16.0485
547.94	16.1291
548.06	15.9823
548.19	15.9315
548.32	16.2152
548.44	16.1882
548.57	15.9071
548.70	16.1877
548.82	16.3342
548.95	16.4257
549.08	16.2166
549.20	16.4480
549.33	16.5820
549.45	16.6382
549.58	16.3012
549.71	16.8226
549.83	16.7899
549.96	16.7515
550.09	16.5099
550.21	16.7150
550.34	16.5072
550.47	16.7902
550.59	16.6433
550.72	16.3514
550.85	16.5068
550.97	16.6268
551.10	16.0951
551.23	16.1424
551.35	16.6429
551.48	16.6507
551.61	16.3604
551.73	16.4848
551.86	16.7223
551.99	16.4680
552.11	16.2553
552.24	16.6066
552.37	16.8169
552.49	16.4771
552.62	16.6219
552.75	16.8322
552.87	16.5947
553.00	16.5851
553.12	16.6746
553.25	16.4526
553.38	16.3516
553.50	16.7017
553.63	16.5917
553.76	16.7036
553.88	17.0099
554.01	16.9649
554.14	16.5102
554.26	16.6688
554.39	16.6830
554.52	16.7288
554.64	16.7940
554.77	16.9910
554.89	16.9305
555.02	17.0122
555.15	16.9762
555.27	16.7815
555.40	16.9252
555.53	17.2170
555.65	17.0649
555.78	16.7609
555.91	17.2639
556.03	17.3551
556.16	16.9606
556.29	16.9323
556.41	17.4139
556.54	17.3969
556.66	17.0011
556.79	17.1273
556.92	17.4676
557.04	17.2905
557.17	17.1071
557.30	17.3874
557.42	17.3434
557.55	17.2248
557.67	17.2008
557.80	17.1383
557.93	17.3622
558.05	17.4872
558.18	17.3481
558.31	17.3381
558.43	17.4080
558.56	17.4244
558.68	17.4859
558.81	17.2111
558.94	17.3662
559.06	17.4350
559.19	17.3643
559.32	17.2591
559.44	17.6822
559.57	17.6600
559.69	17.5261
559.82	17.3690
559.95	17.6542
560.07	17.5432
560.20	17.3339
560.33	17.5367
560.45	17.3859
560.58	17.2346
560.70	17.3619
560.83	17.4503
560.96	17.1614
561.08	17.5303
561.21	17.7260
561.33	17.5667
561.46	17.7023
561.59	17.8739
561.71	17.8799
561.84	17.5038
561.97	17.7190
562.09	17.8152
562.22	17.7031
562.34	17.5614
562.47	17.8587
562.60	17.8819
562.72	17.7743
562.85	17.9745
562.97	18.0979
563.10	18.0167
563.23	17.8473
563.35	17.8281
563.48	17.6495
563.60	17.7511
563.73	17.8339
563.86	17.9446
563.98	18.0357
564.11	18.0258
564.23	17.9711
564.36	17.7444
564.49	17.8437
564.61	18.0399
564.74	18.1724
564.86	18.1351
564.99	18.2677
565.12	18.3158
565.24	18.1672
565.37	18.1567
565.49	18.1917
565.62	18.5432
565.75	18.0866
565.87	17.9963
566.00	18.2948
566.12	18.1683
566.25	17.9059
566.38	18.2128
566.50	18.2990
566.63	18.2146
566.75	18.3858
566.88	18.3523
567.01	18.4654
567.13	18.5959
567.26	18.4083
567.38	18.5140
567.51	18.5003
567.64	18.3653
567.76	18.3522
567.89	18.6164
568.01	18.3576
568.14	18.3737
568.26	18.5979
568.39	18.4356
568.52	18.3713
568.64	18.5772
568.77	18.7321
568.89	18.7449
569.02	18.9258
569.15	18.8355
569.27	18.6624
569.40	18.6210
569.52	18.5800
569.65	18.6435
569.77	18.8990
569.90	18.7582
570.03	18.7854
570.15	18.9370
570.28	19.0118
570.40	18.7441
570.53	18.9303
570.66	18.9638
570.78	18.9880
570.91	18.7453
571.03	18.8834
571.16	19.0240
571.28	19.0154
571.41	19.0061
571.54	19.0688
571.66	19.0716
571.79	19.1885
571.91	19.1081
572.04	18.9391
572.16	19.1206
572.29	19.1444
572.42	19.1612
572.54	19.1957
572.67	19.3658
572.79	19.2776
572.92	19.1998
573.04	19.1998
573.17	19.4464
573.29	19.2931
573.42	19.2194
573.55	19.3594
573.67	19.4631
573.80	19.3800
573.92	19.3990
574.05	19.5056
574.17	19.5554
574.30	19.4670
574.43	19.3810
574.55	19.5336
574.68	19.5201
574.80	19.5704
574.93	19.5778
575.05	19.6860
575.18	19.5757
575.30	19.4779
575.43	19.4137
575.56	19.4437
575.68	19.5753
575.81	19.6056
575.93	19.6707
576.06	19.8089
576.18	19.9586
576.31	19.5274
576.43	19.5128
576.56	19.7143
576.69	19.7582
576.81	19.6354
576.94	19.8666
577.06	20.0586
577.19	19.9814
577.31	19.7500
577.44	19.7549
577.56	19.7092
577.69	19.7239
577.82	19.9534
577.94	19.9606
578.07	19.7534
578.19	20.0653
578.32	20.1834
578.44	19.8991
578.57	20.0902
578.69	20.2723
578.82	20.0790
578.94	19.9673
579.07	20.1027
579.19	19.9813
579.32	20.0160
579.45	20.1937
579.57	20.1586
579.70	20.2215
579.82	20.1336
579.95	20.2708
580.07	20.2357
580.20	20.2601
580.32	20.2181
580.45	20.4591
580.57	20.3458
580.70	20.2775
580.82	20.5570
580.95	20.4292
581.08	20.4458
581.20	20.4691
581.33	20.4834
581.45	20.1661
581.58	20.6104
581.70	20.5180
581.83	20.4081
581.95	20.5384
582.08	20.6566
582.20	20.4402
582.33	20.6067
582.45	20.6792
582.58	20.7348
582.70	20.8032
582.83	20.7057
582.95	20.5776
583.08	20.6211
583.21	20.6491
583.33	20.8098
583.46	20.7944
583.58	20.8360
583.71	20.9387
583.83	20.8663
583.96	20.6831
584.08	20.7699
584.21	20.9192
584.33	21.0877
584.46	20.9277
584.58	20.8556
584.71	21.0260
584.83	21.2010
584.96	20.8590
585.08	20.9412
585.21	21.0951
585.33	20.9527
585.46	20.9005
585.58	21.1415
585.71	21.1275
585.83	21.1524
585.96	21.1910
586.08	20.9606
586.21	21.1304
586.33	21.2185
586.46	21.3445
586.59	21.2596
586.71	21.2528
586.84	21.2960
586.96	21.4338
587.09	21.0511
587.21	21.2514
587.34	21.5330
587.46	21.2439
587.59	21.1855
587.71	21.6177
587.84	21.6822
587.96	21.4603
588.09	21.5837
588.21	21.5560
588.34	21.5251
588.46	21.4321
588.59	21.5704
588.71	21.6478
588.84	21.4369
588.96	21.4014
589.09	21.5800
589.21	21.6211
589.34	21.5247
589.46	21.6250
589.59	21.7586
589.71	21.7346
589.84	21.6800
589.96	21.6469
590.09	21.8317
590.21	21.6964
590.34	21.7635
590.46	21.8356
590.59	21.7797
590.71	22.0218
590.84	22.0153
590.96	21.8854
591.09	21.9776
591.21	22.2964
591.34	21.9323
591.46	21.8946
591.59	21.8867
591.71	21.9514
591.83	21.8774
591.96	21.9547
592.08	22.0273
592.21	22.1703
592.33	22.1499
592.46	22.1299
592.58	22.1932
592.71	22.3001
592.83	22.0865
592.96	22.1802
593.08	22.3747
593.21	22.5136
593.33	22.5480
593.46	22.6112
593.58	22.4294
593.71	22.4858
593.83	22.2409
593.96	22.2646
594.08	22.4627
594.21	22.5038
594.33	22.4358
594.46	22.8733
594.58	22.8354
594.71	22.8470
594.83	22.4472
594.96	22.3716
595.08	22.3725
595.20	22.5606
595.33	22.2140
595.45	22.6358
595.58	22.7976
595.70	22.6785
595.83	22.4235
595.95	22.8162
596.08	22.9545
596.20	22.7129
596.33	22.7173
596.45	22.8709
596.58	22.7369
596.70	22.6102
596.83	22.6446
596.95	22.8183
597.08	22.8291
597.20	22.8664
597.32	22.9816
597.45	23.0454
597.57	22.9921
597.70	22.9836
597.82	23.0970
597.95	23.1026
598.07	23.2080
598.20	23.3267
598.32	23.2872
598.45	23.1101
598.57	23.2278
598.70	23.3285
598.82	23.0167
598.94	23.0170
599.07	23.2301
599.19	23.4649
599.32	23.2142
599.44	23.3234
599.57	23.4851
599.69	23.6295
599.82	23.1462
599.94	23.3051
600.07	23.6467
600.19	23.6840
600.31	23.2885
600.44	23.3050
600.56	23.5135
600.69	23.3890
600.81	23.3643
600.94	23.5575
601.06	23.6211
601.19	23.7241
601.31	23.5085
601.44	23.4269
601.56	23.5933
601.68	23.7761
601.81	23.4479
601.93	23.8176
602.06	24.0292
602.18	23.8230
602.31	23.7101
602.43	23.9065
602.56	23.7363
602.68	23.5286
602.80	23.8061
602.93	23.8811
603.05	23.9050
603.18	24.0627
603.30	24.2292
603.43	24.1008
603.55	24.0975
603.68	24.0274
603.80	23.9581
603.92	23.9307
604.05	24.0892
604.17	24.1585
604.30	24.1594
604.42	23.9968
604.55	24.1062
604.67	24.0702
604.79	24.1099
604.92	24.1748
605.04	24.3322
605.17	24.3471
605.29	24.1222
605.42	24.1095
605.54	24.0803
605.66	24.0727
605.79	24.0069
605.91	24.2648
606.04	24.1514
606.16	24.2412
606.29	24.2980
606.41	24.4523
606.53	24.4247
606.66	24.5858
606.78	24.5592
606.91	24.5176
607.03	24.4861
607.16	24.4060
607.28	24.3145
607.40	24.4023
607.53	24.5900
607.65	24.5846
607.78	24.4419
607.90	24.6570
608.03	24.6356
608.15	24.7035
608.27	24.7212
608.40	25.0960
608.52	24.9824
608.65	25.1612
608.77	24.9428
608.89	24.7042
609.02	24.7332
609.14	24.7233
609.27	24.6708
609.39	25.0065
609.52	25.3079
609.64	25.3194
609.76	25.3229
609.89	25.1679
610.01	25.0294
610.14	25.1445
610.26	24.9345
610.38	25.1420
610.51	25.4506
610.63	25.3804
610.76	25.2301
610.88	25.2391
611.01	25.1308
611.13	25.1111
611.25	25.1822
611.38	25.2059
611.50	25.3704
611.63	25.4658
611.75	25.3715
611.87	25.1704
612.00	25.2737
612.12	25.5606
612.25	25.5130
612.37	25.4724
612.49	25.5313
612.62	25.5044
612.74	25.3227
612.87	25.5388
612.99	25.5459
613.11	25.6243
613.24	25.6298
613.36	25.6421
613.49	25.5972
613.61	25.5283
613.73	25.8052
613.86	25.8962
613.98	25.8796
614.11	25.7861
614.23	25.8883
614.35	25.7754
614.48	25.8197
614.60	25.8417
614.72	25.9158
614.85	25.9975
614.97	26.0640
615.10	25.9672
615.22	25.8590
615.34	25.9843
615.47	25.9519
615.59	25.8270
615.72	26.0465
615.84	25.9415
615.96	25.8917
616.09	26.0865
616.21	26.1819
616.34	26.0005
616.46	26.3012
616.58	26.2364
616.71	26.0871
616.83	26.0021
616.95	26.0778
617.08	26.2265
617.20	26.3845
617.33	26.3314
617.45	26.4412
617.57	26.5698
617.70	26.5105
617.82	26.3319
617.95	26.4513
618.07	26.4439
618.19	26.3064
618.32	26.3517
618.44	26.5974
618.56	26.7271
618.69	26.5893
618.81	26.6485
618.94	26.5324
619.06	26.5077
619.18	26.5236
619.31	26.6124
619.43	26.5257
619.55	26.8726
619.68	26.9537
619.80	26.5697
619.92	26.6055
620.05	26.9195
620.17	26.7977
620.30	26.6022
620.42	27.0134
620.54	27.1860
620.67	27.0174
620.79	26.7427
620.91	26.8998
621.04	26.9000
621.16	27.0305
621.29	27.0757
621.41	27.3671
621.53	27.5302
621.66	27.4409
621.78	27.0646
621.90	27.1862
622.03	27.2479
622.15	27.1037
622.27	27.2720
622.40	27.5328
622.52	27.6157
622.64	27.5471
622.77	27.4437
622.89	27.3620
623.02	27.3757
623.14	27.1957
623.26	27.0378
623.39	27.2397
623.51	27.4671
623.63	27.3434
623.76	27.3779
623.88	27.6778
624.00	27.6837
624.13	27.6393
624.25	27.6815
624.37	27.5802
624.50	27.6659
624.62	27.7884
624.75	27.5564
624.87	27.7990
624.99	28.0338
625.12	27.6106
625.24	27.4432
625.36	27.6265
625.49	27.5883
625.61	27.4094
625.73	27.7374
625.86	27.8947
625.98	28.0301
626.10	27.9456
626.23	28.1006
626.35	28.1260
626.47	28.0497
626.60	27.9390
626.72	27.9233
626.84	28.0607
626.97	28.1744
627.09	27.9509
627.21	27.7800
627.34	28.1260
627.46	28.0542
627.58	27.7939
627.71	28.2735
627.83	28.3660
627.95	27.8848
628.08	27.9669
628.20	28.3028
628.32	28.2193
628.45	28.3348
628.57	28.5752
628.69	28.3653
628.82	28.3199
628.94	28.3582
629.06	28.3075
629.19	28.6045
629.31	28.7792
629.43	28.7366
629.56	28.5078
629.68	28.7508
629.80	28.6912
629.93	28.7781
630.05	28.8009
630.17	29.1236
630.30	28.9941
630.42	29.0458
630.54	29.1989
630.67	28.8882
630.79	28.8314
630.91	28.9973
631.04	28.9010
631.16	28.8675
631.28	29.3566
631.41	29.2380
631.53	29.0942
631.65	29.1023
631.78	29.0171
631.90	29.1932
632.02	29.0930
632.14	29.1659
632.27	29.3170
632.39	29.0914
632.51	28.8521
632.64	29.1882
632.76	29.2054
632.88	29.2057
633.01	29.5043
633.13	29.0927
633.25	29.1939
633.38	29.3265
633.50	29.3112
633.62	29.3959
633.75	29.6340
633.87	29.5464
633.99	29.5893
634.11	29.5599
634.24	29.5562
634.36	29.7738
634.48	29.5906
634.61	29.6163
634.73	29.7507
634.85	29.7926
634.98	29.9324
635.10	29.7775
635.22	29.7711
635.35	29.9095
635.47	29.8509
635.59	29.7011
635.71	30.0953
635.84	29.9694
635.96	29.9166
636.08	29.8825
636.21	29.8740
636.33	29.9517
636.45	30.2513
636.58	29.9539
636.70	30.0822
636.82	30.4398
636.94	30.2684
637.07	29.9900
637.19	30.1586
637.31	30.3375
637.44	30.1029
637.56	30.1664
637.68	30.2864
637.81	30.6437
637.93	30.3863
638.05	30.0643
638.17	30.2291
638.30	30.3631
638.42	30.0995
638.54	30.2025
638.67	30.6215
638.79	30.5742
638.91	30.5571
639.03	30.5741
639.16	30.6288
639.28	30.6897
639.40	30.5263
639.53	30.5245
639.65	30.6219
639.77	30.5648
639.89	30.4585
640.02	30.7875
640.14	30.6313
640.26	30.7216
640.39	30.8092
640.51	30.7687
640.63	30.6618
640.75	30.9581
640.88	30.9881
641.00	30.6755
641.12	30.9543
641.24	31.2016
641.37	30.7553
641.49	30.7757
641.61	31.1452
641.74	31.1814
641.86	30.9403
641.98	31.2685
642.10	31.3050
642.23	31.3008
642.35	31.1664
642.47	31.1049
642.60	31.3320
642.72	31.2479
642.84	31.2685
642.96	31.3338
643.09	31.5528
643.21	31.5538
643.33	31.4594
643.45	31.3226
643.58	31.4862
643.70	31.5487
643.82	31.4996
643.94	31.6356
644.07	31.8120
644.19	31.5834
644.31	31.5125
644.44	31.5205
644.56	31.5773
644.68	31.6796
644.80	31.9006
644.93	31.8962
645.05	31.8982
645.17	31.9165
645.29	31.9576
645.42	31.7905
645.54	31.8559
645.66	32.0061
645.78	31.9706
645.91	31.7115
646.03	31.9588
646.15	32.0256
646.27	31.8898
646.40	31.8017
646.52	32.1305
646.64	32.2395
646.76	32.0927
646.89	32.0666
647.01	32.0750
647.13	32.1610
647.25	32.0554
647.38	32.0079
647.50	32.2744
647.62	32.6060
647.74	32.3560
647.87	32.1354
647.99	32.3749
648.11	32.4516
648.23	32.1689
648.36	32.3260
648.48	32.6676
648.60	32.8513
648.72	32.4657
648.85	32.6373
648.97	32.7679
649.09	32.6409
649.21	32.4581
649.34	32.6945
649.46	32.7092
649.58	32.7596
649.70	32.6987
649.83	32.7147
649.95	32.6678
650.07	32.7940
650.19	32.6121
650.32	32.6360
650.44	32.7499
650.56	32.8812
650.68	32.8743
650.81	32.7744
650.93	32.9525
651.05	32.8702
651.17	32.8766
651.29	32.8487
651.42	33.2266
651.54	33.4211
651.66	33.4923
651.78	33.1200
651.91	33.1969
652.03	33.2682
652.15	33.0798
652.27	33.1835
652.40	33.6224
652.52	33.7772
652.64	33.3217
652.76	33.3318
652.88	33.4135
653.01	33.6256
653.13	33.3626
653.25	33.4882
653.37	33.4493
653.50	33.5467
653.62	33.1747
653.74	33.2251
653.86	33.5901
653.98	33.7680
654.11	33.7012
654.23	33.5700
654.35	33.7257
654.47	33.7093
654.60	33.8647
654.72	33.6961
654.84	34.1182
654.96	34.1757
655.08	34.2267
655.21	33.9931
655.33	34.1495
655.45	34.2302
655.57	34.1690
655.70	33.8780
655.82	33.9705
655.94	34.2682
656.06	34.0779
656.18	34.0484
656.31	34.4364
656.43	34.5700
656.55	34.3847
656.67	34.3711
656.79	34.5924
656.92	34.6526
657.04	34.2944
657.16	34.3143
657.28	34.4719
657.40	34.5672
657.53	34.3393
657.65	34.4555
657.77	34.5341
657.89	34.7174
658.01	34.4182
658.14	34.5000
658.26	34.8736
658.38	34.9188
658.50	34.4108
658.62	34.5541
658.75	34.5834
658.87	34.7297
658.99	34.6116
659.11	34.7622
659.23	34.8386
659.36	34.8876
659.48	34.6735
659.60	34.7813
659.72	35.0636
659.84	35.0733
659.97	34.7226
660.09	34.5305
660.21	34.6634
660.33	34.8844
660.45	34.8390
660.58	35.0675
660.70	35.4126
660.82	35.2234
660.94	34.8668
661.06	34.8988
661.19	35.1561
661.31	35.0958
661.43	35.0951
661.55	35.1511
661.67	35.3798
661.80	35.3340
661.92	35.3413
662.04	35.2920
662.16	35.6145
662.28	35.5497
662.40	35.4680
662.53	35.5603
662.65	35.6129
662.77	35.6083
662.89	35.7350
663.01	35.8375
663.14	35.7646
663.26	36.0579
663.38	36.0000
663.50	35.7780
663.62	35.9024
663.74	36.0535
663.87	35.9558
663.99	35.6727
664.11	35.9411
664.23	36.0542
664.35	35.9240
664.48	35.9665
664.60	36.4847
664.72	36.4768
664.84	36.2175
664.96	36.3369
665.08	36.2625
665.21	36.3847
665.33	36.3694
665.45	36.3238
665.57	36.3110
665.69	36.5301
665.81	36.3446
665.94	36.2092
666.06	36.4188
666.18	36.6132
666.30	36.4343
666.42	36.3502
666.54	36.6695
666.67	36.5811
666.79	36.4274
666.91	36.6804
667.03	36.7421
667.15	36.6847
667.27	36.9046
667.40	36.7036
667.52	36.6406
667.64	36.8802
667.76	36.6765
667.88	36.4425
668.00	36.7304
668.13	36.7751
668.25	36.6300
668.37	36.6152
668.49	36.9167
668.61	36.9820
668.73	36.8772
668.85	36.8498
668.98	37.1793
669.10	37.1160
669.22	36.8755
669.34	37.0979
669.46	37.1210
669.58	36.9620
669.71	37.0939
669.83	37.2947
669.95	37.2151
670.07	37.2597
670.19	37.4892
670.31	37.4539
670.43	37.3447
670.56	37.3381
670.68	37.5006
670.80	37.1759
670.92	37.2300
671.04	37.5293
671.16	37.6168
671.28	37.3643
671.41	37.7348
671.53	37.9754
671.65	37.5598
671.77	37.3938
671.89	37.6691
672.01	37.8046
672.13	37.5270
672.26	38.0223
672.38	38.0800
672.50	37.9146
672.62	37.6962
672.74	37.8560
672.86	37.7890
672.98	37.9933
673.11	37.9808
673.23	38.1165
673.35	38.1131
673.47	38.3667
673.59	38.3062
673.71	38.0856
673.83	38.0303
673.96	38.1860
674.08	37.8778
674.20	37.8789
674.32	38.2842
674.44	38.3387
674.56	38.1515
674.68	38.2605
674.80	38.5022
674.93	38.6070
675.05	38.5566
675.17	38.5372
675.29	38.6163
675.41	38.5389
675.53	38.5285
675.65	38.3905
675.77	38.5973
675.90	38.8188
676.02	38.6051
676.14	38.3663
676.26	38.6720
676.38	38.6037
676.50	38.4824
676.62	38.8253
676.74	38.9899
676.87	38.7816
676.99	38.7605
677.11	38.6451
677.23	38.6252
677.35	38.8814
677.47	38.9879
677.59	38.9450
677.71	39.0282
677.83	38.9118
677.96	38.8425
678.08	39.0644
678.20	39.3267
678.32	39.4682
678.44	39.1540
678.56	39.0859
678.68	39.1758
678.80	39.1220
678.93	39.0016
679.05	39.2393
679.17	39.3561
679.29	39.3328
679.41	39.3975
679.53	39.4390
679.65	39.7193
679.77	39.6826
679.89	39.4821
680.01	39.7507
680.14	39.9691
680.26	39.8710
680.38	39.7739
680.50	39.9455
680.62	39.7827
680.74	39.7371
680.86	39.8452
680.98	39.6966
681.10	39.7924
681.22	39.8643
681.35	39.9829
681.47	39.6048
681.59	40.0262
681.71	40.1594
681.83	39.8643
681.95	39.5393
682.07	39.9875
682.19	40.0477
682.31	39.6831
682.43	40.0350
682.56	40.3073
682.68	40.2296
682.80	40.0827
682.92	40.3515
683.04	40.3139
683.16	40.1018
683.28	40.1894
683.40	40.2161
683.52	40.2636
683.64	40.2956
683.76	40.5295
683.89	40.3883
684.01	40.5195
684.13	40.5285
684.25	40.3817
684.37	40.4510
684.49	40.5337
684.61	40.5885
684.73	40.7344
684.85	40.5874
684.97	40.7133
685.09	41.0656
685.21	40.7095
685.34	40.6869
685.46	41.0743
685.58	40.7495
685.70	40.7101
685.82	41.1226
685.94	41.0304
686.06	40.9123
686.18	41.1471
686.30	40.9393
686.42	41.1046
686.54	40.9862
686.66	41.1805
686.79	40.9552
686.91	41.0754
687.03	41.1519
687.15	41.4828
687.27	41.2168
687.39	41.5325
687.51	41.6161
687.63	41.4499
687.75	41.1523
687.87	41.6193
687.99	41.6166
688.11	41.4283
688.23	41.4131
688.35	41.7451
688.48	41.5566
688.60	41.4879
688.72	41.6591
688.84	41.8669
688.96	41.9321
689.08	41.5024
689.20	41.5292
689.32	41.7786
689.44	41.7976
689.56	41.6515
689.68	42.0832
689.80	42.1628
689.92	41.8889
690.04	41.7145
690.16	41.7150
690.28	41.9720
690.41	41.8998
690.53	41.7950
690.65	41.7622
690.77	41.7987
690.89	41.6196
691.01	41.8017
691.13	41.9544
691.25	42.2208
691.37	42.4906
691.49	42.1059
691.61	41.9993
691.73	42.2865
691.85	42.3682
691.97	42.0258
692.09	42.3161
692.21	42.3438
692.33	42.4262
692.45	42.2685
692.57	42.2710
692.70	42.6584
692.82	42.8421
692.94	42.5870
693.06	42.7142
693.18	43.0675
693.30	42.7247
693.42	42.6319
693.54	42.7925
693.66	42.9406
693.78	42.8398
693.90	43.0256
694.02	43.2291
694.14	43.1973
694.26	42.8881
694.38	42.7897
694.50	42.9530
694.62	42.9511
694.74	42.9397
694.86	43.0700
694.98	43.0544
695.10	43.0366
695.22	43.0025
695.34	43.0819
695.46	43.0643
695.58	43.3189
695.71	43.3190
695.83	43.0149
695.95	43.1345
696.07	43.3181
696.19	43.3963
696.31	43.0492
696.43	43.3255
696.55	43.4000
696.67	43.3907
696.79	43.4188
696.91	43.4326
697.03	43.5561
697.15	43.6489
697.27	43.4178
697.39	43.3797
697.51	43.7728
697.63	43.5213
697.75	43.3772
697.87	43.7401
697.99	43.6694
698.11	43.6128
698.23	43.8603
698.35	43.8557
698.47	43.9374
698.59	43.8138
698.71	44.0068
698.83	44.0776
698.95	44.1772
699.07	44.0454
699.19	44.4437
699.31	44.3147
699.43	44.4322
699.55	44.4777
699.67	44.5839
699.79	44.3855
699.91	44.3470
700.03	44.2094
700.15	44.0581
700.27	44.1080
700.39	44.0795
700.51	44.1684
700.63	44.0889
700.75	44.3115
700.87	44.1570
700.99	44.3751
701.11	44.3796
701.24	44.3398
701.36	44.2443
701.48	44.5535
701.60	44.2422
701.72	44.3600
701.84	44.7188
701.96	44.6463
702.08	44.3544
702.20	44.6476
702.32	44.7593
702.44	44.8323
702.56	45.0752
702.68	44.9564
702.80	44.8627
702.92	44.8858
703.04	44.7905
703.16	44.8500
703.28	45.1409
703.40	45.2037
703.52	45.0456
703.64	45.0024
703.76	44.9610
703.88	45.0359
704.00	44.9720
704.12	45.0437
704.24	44.9970
704.36	45.0671
704.48	44.9499
704.60	45.1173
704.72	44.9267
704.84	44.9426
704.96	45.0570
705.07	45.2529
705.19	45.1500
705.31	45.5194
705.43	45.5395
705.55	45.3728
705.67	45.5440
705.79	45.7686
705.91	45.5767
706.03	45.7012
706.15	45.8209
706.27	45.6367
706.39	45.7280
706.51	45.8717
706.63	45.8691
706.75	45.6253
706.87	45.6764
706.99	45.7279
707.11	45.7510
707.23	45.8210
707.35	45.9712
707.47	45.8671
707.59	45.8750
707.71	45.8862
707.83	46.0585
707.95	45.8193
708.07	45.9404
708.19	46.1886
708.31	46.2138
708.43	45.9537
708.55	46.3550
708.67	46.3161
708.79	46.0179
708.91	45.9464
709.03	46.2070
709.15	46.1396
709.27	46.2146
709.39	46.1200
709.51	46.1333
709.63	46.2908
709.75	46.2431
709.87	46.2873
709.99	46.5573
710.11	46.9474
710.23	46.4214
710.35	46.4985
710.47	46.4939
710.58	46.2537
710.70	46.0737
710.82	46.4109
710.94	46.3886
711.06	46.5085
711.18	46.4854
711.30	46.3669
711.42	46.3646
711.54	46.7550
711.66	46.6174
711.78	46.5015
711.90	46.7768
712.02	47.1020
712.14	46.6288
712.26	46.4786
712.38	46.8960
712.50	46.9029
712.62	46.7290
712.74	46.6944
712.86	47.0571
712.98	47.1076
713.10	46.8591
713.22	46.7722
713.34	47.0169
713.45	47.0296
713.57	46.9735
713.69	47.0674
713.81	47.2532
713.93	47.6592
714.05	47.3463
714.17	47.1141
714.29	47.3558
714.41	47.1683
714.53	46.8646
714.65	47.3121
714.77	47.2087
714.89	47.0988
715.01	47.2303
715.13	47.3162
715.25	47.3132
715.37	47.5391
715.49	47.5471
715.61	47.3841
715.72	47.4838
715.84	47.5060
715.96	47.4417
716.08	47.3351
716.20	47.6073
716.32	47.5842
716.44	47.5098
716.56	47.4673
716.68	47.5620
716.80	47.6370
716.92	47.5980
717.04	47.6012
717.16	47.9665
717.28	47.9110
717.40	47.7850
717.52	47.7589
717.63	47.7471
717.75	47.7425
717.87	48.0600
717.99	47.9313
718.11	47.9169
718.23	47.9643
718.35	48.2239
718.47	48.1087
718.59	48.3394
718.71	48.2889
718.83	48.4973
718.95	48.2353
719.07	48.2352
719.19	48.2050
719.30	48.3996
719.42	48.2408
719.54	48.2526
719.66	48.4913
719.78	48.5205
719.90	48.5556
720.02	48.4753
720.14	48.4998
720.26	48.4220
720.38	48.7573
720.50	48.6433
720.62	48.9482
720.74	48.9383
720.85	48.5817
720.97	48.5454
721.09	48.5813
721.21	48.4731
721.33	48.6114
721.45	48.9902
721.57	49.1293
721.69	48.9889
721.81	48.8256
721.93	48.9980
722.05	49.1953
722.16	48.9693
722.28	49.0656
722.40	49.0055
722.52	49.1605
722.64	48.9327
722.76	48.7857
722.88	49.1316
723.00	49.3855
723.12	49.4288
723.24	49.2931
723.36	49.3251
723.47	49.2667
723.59	49.2119
723.71	49.0628
723.83	49.3178
723.95	49.2811
724.07	48.8920
724.19	49.1358
724.31	49.4187
724.43	49.5355
724.55	49.0867
724.66	49.6542
724.78	49.7633
724.90	49.3555
725.02	49.1828
725.14	50.1146
725.26	49.9684
725.38	49.6650
725.50	49.7383
725.62	49.9671
725.74	50.1343
725.85	50.3419
725.97	49.2215
726.09	49.5008
726.21	49.7489
726.33	49.5013
726.45	49.3446
726.57	50.6410
726.69	50.3913
726.81	50.0255
726.92	49.8240
727.04	49.9036
727.16	50.0269
727.28	50.1817
727.40	49.8415
727.52	49.7251
727.64	49.7201
727.76	49.8603
727.88	49.8349
727.99	50.1638
728.11	50.4417
728.23	50.5002
728.35	50.3075
728.47	50.1940
728.59	50.4335
728.71	50.4316
728.83	50.2236
728.94	50.1185
729.06	50.2886
729.18	50.2865
729.30	50.1229
729.42	50.1068
729.54	50.3977
729.66	50.2619
729.78	50.1327
729.90	50.5671
730.01	50.7311
730.13	50.6668
730.25	50.6976
730.37	50.7927
730.49	50.6013
730.61	50.6591
730.73	50.6883
730.84	50.7768
730.96	50.9711
731.08	51.1494
731.20	50.6620
731.32	50.8170
731.44	51.0329
731.56	50.7136
731.68	50.5901
731.79	51.1925
731.91	50.9256
732.03	50.8539
732.15	51.0497
732.27	50.8487
732.39	51.0375
732.51	51.3491
732.62	51.0486
732.74	51.0595
732.86	51.4062
732.98	51.1680
733.10	50.7989
733.22	51.2863
733.34	51.2193
733.45	51.1621
733.57	51.1943
733.69	51.3840
733.81	51.3367
733.93	51.3523
734.05	51.2932
734.17	51.3801
734.28	51.6904
734.40	51.6825
734.52	51.4320
734.64	51.5111
734.76	51.7832
734.88	51.5712
735.00	51.1722
735.11	51.6868
735.23	51.9920
735.35	51.5273
735.47	51.5897
735.59	51.9533
735.71	51.7536
735.83	51.4835
735.94	51.6405
736.06	51.5556
736.18	51.5480
736.30	51.8870
736.42	52.0063
736.54	51.5931
736.65	51.7607
736.77	51.9498
736.89	51.2791
737.01	51.5385
737.13	52.2128
737.25	52.0550
737.36	51.8243
737.48	52.4195
737.60	52.0667
737.72	51.7229
737.84	51.9471
737.96	51.8568
738.08	51.9834
738.19	52.0530
738.31	52.3803
738.43	52.2923
738.55	52.6757
738.67	52.5071
738.79	52.4491
738.90	52.5420
739.02	52.6741
739.14	52.4252
739.26	52.3441
739.38	52.6168
739.50	52.5694
739.61	52.5286
739.73	52.5701
739.85	52.4366
739.97	52.6356
740.09	52.6222
740.20	52.5205
740.32	52.9030
740.44	53.1881
740.56	52.8892
740.68	52.9636
740.80	52.9455
740.91	52.6554
741.03	52.7894
741.15	52.6572
741.27	52.6033
741.39	52.5615
741.51	52.6559
741.62	52.5856
741.74	52.8144
741.86	52.8206
741.98	53.0046
742.10	52.9889
742.21	53.1256
742.33	52.7682
742.45	52.8578
742.57	52.8130
742.69	52.9515
742.80	52.9165
742.92	53.3265
743.04	53.0077
743.16	53.3534
743.28	53.3738
743.40	53.4610
743.51	53.4228
743.63	53.7883
743.75	53.5297
743.87	53.4248
743.99	53.2983
744.10	53.4294
744.22	53.2380
744.34	53.1427
744.46	53.4342
744.58	53.2430
744.69	53.1992
744.81	53.6982
744.93	53.6520
745.05	53.2054
745.17	53.4994
745.28	53.5495
745.40	53.2820
745.52	53.3822
745.64	53.7535
745.76	53.9349
745.87	53.7312
745.99	53.8792
746.11	54.1503
746.23	54.2507
746.35	53.5881
746.46	53.6787
746.58	53.5314
746.70	53.4131
746.82	53.3129
746.94	53.9205
747.05	54.1991
747.17	54.3843
747.29	53.9452
747.41	54.2473
747.53	54.2431
747.64	53.9228
747.76	53.6368
747.88	54.2461
748.00	54.1078
748.12	54.1285
748.23	54.2238
748.35	54.3304
748.47	54.4415
748.59	54.4094
748.70	54.3787
748.82	54.4353
748.94	54.4494
749.06	54.4022
749.18	54.1559
749.29	54.1512
749.41	54.3264
749.53	54.3369
749.65	54.4690
749.76	54.7575
749.88	54.6295
750.00	54.4480
750.12	54.6258
750.24	54.6830
750.35	54.4253
750.47	54.6587
750.59	54.5805
750.71	54.7977
750.82	54.6727
750.94	54.8873
751.06	54.8187
751.18	54.9730
751.30	54.6224
751.41	54.6769
751.53	54.8258
751.65	54.6686
751.77	54.5217
751.88	54.9853
752.00	54.6541
752.12	54.4892
752.24	54.7482
752.35	54.9086
752.47	54.4479
752.59	54.9976
752.71	54.8158
752.83	55.0322
752.94	55.0844
753.06	55.2233
753.18	55.0349
753.30	55.2590
753.41	54.9753
753.53	54.8817
753.65	55.1342
753.77	55.1135
753.88	55.0630
754.00	54.8474
754.12	55.1872
754.24	55.4834
754.35	55.2962
754.47	55.2773
754.59	55.6950
754.71	55.7145
754.82	55.1360
754.94	55.3657
755.06	55.5560
755.18	55.6843
755.29	55.4534
755.41	55.7250
755.53	55.7553
755.65	55.6960
755.76	55.1127
755.88	55.1636
756.00	55.4437
756.12	55.4363
756.23	55.0848
756.35	55.5445
756.47	55.8201
756.59	55.5042
756.70	55.5982
756.82	55.8780
756.94	55.7580
757.06	55.6823
757.17	55.9275
757.29	55.7125
757.41	55.8711
757.53	55.9391
757.64	55.7144
757.76	55.4058
757.88	55.5997
758.00	55.8906
758.11	55.8829
758.23	56.1285
758.35	56.1424
758.47	56.2236
758.58	56.0048
758.70	56.2466
758.82	56.0513
758.94	56.3877
759.05	56.4061
759.17	56.0977
759.29	56.0685
759.40	56.3733
759.52	56.1281
759.64	55.9174
759.76	56.2572
759.87	56.3099
759.99	56.3999
760.11	56.4516
760.23	56.5421
760.34	56.6314
760.46	56.5746
760.58	56.2021
760.70	56.2302
760.81	56.2542
760.93	56.2121
761.05	56.3637
761.16	56.6347
761.28	56.8772
761.40	56.6355
761.52	56.5543
761.63	56.5278
761.75	56.7059
761.87	56.5417
761.98	56.9739
762.10	57.0173
762.22	57.2896
762.34	57.0825
762.45	56.5594
762.57	56.7423
762.69	56.7879
762.81	56.8588
762.92	56.8677
763.04	57.1539
763.16	57.0678
763.27	57.0854
763.39	56.5314
763.51	56.6396
763.63	57.2193
763.74	57.2279
763.86	57.3683
763.98	57.4164
764.09	57.5788
764.21	57.3734
764.33	57.2708
764.44	57.1947
764.56	57.3820
764.68	57.4753
764.80	57.0459
764.91	57.0907
765.03	57.2380
765.15	57.4723
765.26	57.0325
765.38	57.4262
765.50	57.4320
765.62	57.2811
765.73	57.2953
765.85	57.4532
765.97	57.6016
766.08	57.7317
766.20	57.7733
766.32	57.4226
766.43	57.5074
766.55	57.3740
766.67	57.3200
766.79	57.5266
766.90	57.9205
767.02	58.2052
767.14	57.7198
767.25	57.7615
767.37	57.8651
767.49	57.4762
767.60	57.1042
767.72	57.8018
767.84	58.0204
767.95	57.7198
768.07	57.8754
768.19	58.1012
768.31	58.1119
768.42	57.9688
768.54	57.8471
768.66	57.9123
768.77	58.0680
768.89	57.9517
769.01	57.7312
769.12	58.0812
769.24	58.2247
769.36	58.1643
769.47	57.9989
769.59	58.1064
769.71	58.0266
769.82	58.2129
769.94	57.9353
770.06	58.2528
770.17	58.2096
770.29	58.0368
770.41	58.0084
770.53	58.1621
770.64	57.9115
770.76	57.8960
770.88	58.4610
770.99	58.3217
771.11	58.4892
771.23	58.3670
771.34	58.3591
771.46	58.0607
771.58	58.0170
771.69	57.7608
771.81	58.3801
771.93	58.3420
772.04	58.4261
772.16	58.3247
772.28	58.6323
772.39	58.2729
772.51	58.7342
772.63	58.8032
772.74	58.3417
772.86	58.5511
772.98	58.7897
773.09	58.5182
773.21	58.3657
773.33	59.1620
773.44	58.7777
773.56	58.4416
773.68	58.7757
773.79	58.9768
773.91	58.9471
774.03	58.7479
774.14	59.1710
774.26	59.3092
774.38	59.0746
774.49	58.7834
774.61	59.1479
774.73	59.0717
774.84	58.7395
774.96	58.9549
775.08	59.0912
775.19	59.0441
775.31	59.1198
775.43	59.3921
775.54	58.9753
775.66	59.3293
775.77	59.1447
775.89	58.7711
776.01	58.5413
776.12	59.2174
776.24	59.1259
776.36	59.1384
776.47	59.1280
776.59	59.4579
776.71	59.4071
776.82	59.3212
776.94	59.2592
777.06	59.8629
777.17	59.9405
777.29	59.6436
777.41	59.6658
777.52	59.7462
777.64	59.8938
777.75	59.7447
777.87	59.5948
777.99	59.6074
778.10	59.9444
778.22	59.7170
778.34	59.4847
778.45	59.8081
778.57	59.9501
778.69	59.5224
778.80	59.5570
778.92	59.9467
779.04	59.8965
779.15	59.6469
779.27	59.7592
779.38	59.8300
779.50	59.5719
779.62	59.9657
779.73	59.5024
779.85	59.9276
779.97	60.0761
780.08	59.9584
780.20	59.5295
780.31	60.2878
780.43	60.4055
780.55	59.9903
780.66	59.6350
780.78	60.1077
780.90	60.2700
781.01	60.1805
781.13	59.8881
781.25	60.6199
781.36	60.4134
781.48	59.7838
781.59	59.5540
781.71	60.2871
781.83	60.4445
781.94	59.9406
782.06	60.3682
782.18	61.1065
782.29	60.5513
782.41	60.0885
782.52	60.5665
782.64	60.6972
782.76	60.7153
782.87	60.4936
782.99	60.0034
783.10	60.3225
783.22	60.2441
783.34	59.6274
783.45	60.3146
783.57	60.7785
783.69	60.0533
783.80	59.9305
783.92	60.1610
784.03	59.9284
784.15	60.2132
784.27	60.5986
784.38	60.5984
784.50	60.6625
784.61	60.8957
784.73	61.0778
784.85	60.8350
784.96	60.7892
785.08	60.7141
785.19	60.9007
785.31	60.8648
785.43	60.7983
785.54	60.7845
785.66	60.4567
785.77	60.5769
785.89	60.4131
786.01	60.7513
786.12	60.5991
786.24	60.9044
786.35	60.7095
786.47	61.0520
786.59	61.0004
786.70	61.3866
786.82	61.3221
786.93	61.0887
787.05	60.8457
787.17	61.1010
787.28	60.9902
787.40	61.0032
787.51	61.5398
787.63	61.3769
787.75	61.0372
787.86	61.2780
787.98	61.3463
788.09	60.6550
788.21	60.7128
788.33	61.3378
788.44	61.0877
788.56	61.3917
788.67	61.6597
788.79	62.0136
788.91	62.0083
789.02	61.6296
789.14	61.2187
789.25	61.4517
789.37	61.2224
789.48	61.1487
789.60	61.4817
789.72	61.3641
789.83	61.5990
789.95	61.9028
790.06	61.2971
790.18	61.2538
790.30	61.4469
790.41	61.1068
790.53	60.9786
790.64	61.2686
790.76	61.5303
790.87	61.4905
790.99	61.5468
791.11	61.5194
791.22	61.3629
791.34	61.3003
791.45	61.5855
791.57	61.6926
791.68	61.2118
791.80	61.4365
791.92	61.7600
792.03	61.7006
792.15	61.7071
792.26	61.9417
792.38	61.9874
792.49	61.9992
792.61	62.2359
792.73	62.8090
792.84	64.7161
792.96	59.9507
793.07	60.5207
793.19	61.4775
793.30	61.6084
793.42	60.5003
793.54	64.3524
793.65	63.9006
793.77	63.2112
793.88	62.2523
794.00	61.8185
794.11	62.4678
794.23	62.6041
794.34	62.6906
794.46	62.0714
794.58	61.4867
794.69	62.5286
794.81	62.7492
794.92	61.5197
795.04	62.0273
795.15	62.5114
795.27	62.1872
795.39	61.7760
795.50	62.5762
795.62	62.9878
795.73	62.8382
795.85	62.0244
795.96	62.1785
796.08	62.2011
796.19	62.2863
796.31	62.4577
796.42	62.5752
796.54	62.6408
796.66	62.9881
796.77	62.1413
796.89	62.5978
797.00	63.1636
797.12	62.6568
797.23	62.1376
797.35	62.6572
797.46	62.1909
797.58	62.2510
797.69	62.5103
797.81	62.8428
797.93	63.1739
798.04	62.9054
798.16	62.9843
798.27	63.1794
798.39	63.3261
798.50	63.4516
798.62	63.1951
798.73	63.2548
798.85	63.1876
798.96	62.5940
799.08	62.3857
799.19	63.1499
799.31	63.3691
799.43	63.2474
799.54	63.1598
799.66	63.3899
799.77	64.0100
799.89	63.7802
800.00	63.4120
800.12	63.2996
800.23	63.6643
800.35	63.4144
800.46	62.8857
800.58	63.1586
800.69	63.8020
800.81	62.8631
800.92	62.7875
801.04	63.5075
801.16	63.8282
801.27	63.8186
801.39	64.3797
801.50	63.7416
801.62	63.2339
801.73	63.7237
801.85	63.4803
801.96	62.9678
802.08	63.8060
802.19	64.1718
802.31	63.0059
802.42	63.0038
802.54	63.8377
802.65	63.0831
802.77	63.6516
802.88	63.6200
803.00	64.1274
803.11	63.9333
803.23	64.0874
803.34	63.6638
803.46	63.8329
803.57	63.8878
803.69	63.3326
803.80	63.6969
803.92	63.5513
804.03	63.7641
804.15	63.3298
804.26	64.1264
804.38	63.8478
804.50	63.5886
804.61	63.7893
804.73	64.6132
804.84	64.2948
804.96	64.6727
805.07	64.8523
805.19	64.6984
805.30	64.2521
805.42	64.2563
805.53	64.2949
805.65	64.5725
805.76	64.6173
805.88	64.2450
805.99	64.4708
806.11	64.2523
806.22	64.0754
806.34	64.3800
806.45	64.1990
806.57	64.3928
806.68	64.2389
806.80	64.0550
806.91	64.3391
807.03	64.9618
807.14	64.6850
807.26	64.4691
807.37	65.1270
807.49	64.5055
807.60	63.8028
807.72	64.0416
807.83	64.6639
807.95	64.2321
808.06	64.2541
808.17	65.1644
808.29	64.8233
808.40	64.3881
808.52	64.2070
808.63	64.6493
808.75	64.1279
808.86	64.2788
808.98	64.2881
809.09	64.5238
809.21	64.2181
809.32	65.1207
809.44	64.9182
809.55	65.6539
809.67	65.4001
809.78	65.1260
809.90	64.8087
810.01	64.2215
810.13	64.0630
810.24	64.6006
810.36	65.0956
810.47	64.3478
810.59	64.3391
810.70	64.3943
810.82	64.3330
810.93	64.3989
811.05	64.9649
811.16	65.3819
811.27	64.1216
811.39	64.4003
811.50	65.3611
811.62	64.8986
811.73	65.0205
811.85	65.7747
811.96	65.3452
812.08	64.4222
812.19	64.9539
812.31	65.7334
812.42	65.7456
812.54	65.3694
812.65	65.2855
812.77	65.0122
812.88	64.3118
813.00	65.1025
813.11	65.8025
813.22	66.3104
813.34	65.6281
813.45	65.0331
813.57	64.9635
813.68	65.5587
813.80	65.5295
813.91	65.0874
814.03	66.2216
814.14	65.6043
814.26	64.4703
814.37	64.5371
814.49	65.9208
814.60	65.1649
814.71	65.7842
814.83	66.0627
814.94	65.3160
815.06	65.7428
815.17	67.0945
815.29	65.2564
815.40	65.4990
815.52	66.4414
815.63	65.5302
815.75	65.4268
815.86	66.5498
815.97	65.5667
816.09	64.6329
816.20	66.3196
816.32	65.4874
816.43	66.3083
816.55	65.7437
816.66	66.7327
816.78	65.8730
816.89	66.6142
817.00	67.0333
817.12	67.7101
817.23	67.3480
817.35	68.1974
817.46	66.3131
817.58	65.9002
817.69	66.7524
817.81	66.4481
817.92	65.0943
818.03	66.9561
818.15	67.0549
818.26	66.6753
818.38	70.6567
818.49	76.5982
818.61	55.4559
818.72	56.2681
818.83	62.8296
818.95	60.0644
819.06	53.2401
819.18	75.9221
819.29	74.2705
819.41	67.4997
819.52	66.4236
819.64	68.3567
819.75	68.3426
819.86	67.1146
819.98	67.4203
820.09	68.5521
820.21	66.6676
820.32	64.6975
820.44	67.6326
820.55	67.5132
820.66	66.6879
820.78	67.0061
820.89	68.9865
821.01	67.1700
821.12	68.7533
821.23	66.4435
821.35	66.2233
821.46	67.7402
821.58	69.3156
821.69	66.1806
821.81	67.6237
821.92	66.8648
822.03	66.9857
822.15	66.7847
822.26	66.8724
822.38	66.8388
822.49	67.9943
822.61	64.9516
822.72	64.2845
822.83	67.8613
822.95	67.4261
823.06	65.8905
823.18	67.4414
823.29	68.9769
823.40	71.4879
823.52	67.4928
823.63	69.7697
823.75	73.8154
823.86	69.1460
823.97	67.3462
824.09	72.4237
824.20	73.7518
824.32	69.4572
824.43	67.8456
824.55	68.3074
824.66	70.6072
824.77	66.4798
824.89	68.0952
825.00	71.5504
825.12	71.2747
825.23	73.0775
825.34	71.6477
825.46	71.1792
825.57	77.6265
825.69	74.3704
825.80	73.3158
825.91	75.0719
826.03	77.8065
826.14	72.0211
826.26	73.0113
826.37	69.3651
826.48	77.8539
826.60	74.0425
826.71	74.4071
826.83	67.0582
826.94	65.1330
827.05	64.0601
827.17	67.6867
827.28	73.6831
827.39	80.6186
827.51	84.6458
827.62	83.0408
827.74	88.1705
827.85	85.3678
827.96	66.3223
828.08	78.3979
828.19	110.5967
828.31	93.8199
828.42	80.0792
828.53	97.9098
828.65	4.4834
828.76	0.0000
828.87	0.0000
828.99	0.0000
