Wavelength (nm)	Reflectance (%)
377.35	0.0000
377.48	0.0000
377.62	0.0000
377.75	22.1277
377.88	0.0000
378.02	4.3810
378.15	200.0000
378.28	143.3000
378.41	0.0000
378.55	200.0000
378.68	200.0000
378.81	200.0000
378.95	200.0000
379.08	200.0000
379.21	200.0000
379.35	148.1290
379.48	152.5116
379.61	138.6759
379.74	75.0988
379.88	0.0000
380.01	20.9794
380.14	48.3918
380.28	0.4109
380.41	0.0000
380.54	76.2886
380.68	75.1750
380.81	27.5182
380.94	13.0831
381.07	45.8141
381.21	54.7496
381.34	0.0000
381.47	20.6084
381.61	86.2380
381.74	66.8333
381.87	0.0000
382.00	56.2454
382.14	79.7116
382.27	12.9650
382.40	0.0000
382.54	42.8928
382.67	50.3468
382.80	14.8486
382.93	38.8982
383.07	50.3165
383.20	46.2488
383.33	69.5584
383.47	29.2422
383.60	26.1852
383.73	53.4938
383.86	49.4328
384.00	6.2867
384.13	43.2654
384.26	53.2802
384.40	22.9772
384.53	8.2526
384.66	26.4236
384.79	44.5405
384.93	35.9134
385.06	15.2185
385.19	18.6900
385.33	22.3702
385.46	0.9513
385.59	13.3844
385.72	50.0802
385.86	42.1501
385.99	42.6741
386.12	44.4363
386.25	17.4870
386.39	24.7128
386.52	40.6755
386.65	30.9916
386.79	8.6954
386.92	41.5566
387.05	48.3120
387.18	22.5559
387.32	16.2504
387.45	56.4751
387.58	45.5710
387.71	26.8090
387.85	32.5300
387.98	32.6992
388.11	32.7297
388.25	19.9462
388.38	10.9794
388.51	21.9502
388.64	44.5654
388.78	45.0107
388.91	19.9840
389.04	43.0786
389.17	38.2211
389.31	3.3617
389.44	0.0000
389.57	31.2244
389.70	28.1275
389.84	33.5254
389.97	35.2766
390.10	39.6308
390.24	40.5318
390.37	17.2951
390.50	12.8568
390.63	18.4796
390.77	10.3423
390.90	11.9137
391.03	29.7717
391.16	23.4831
391.30	27.5330
391.43	43.7976
391.56	22.7377
391.69	25.8143
391.83	43.0429
391.96	20.0171
392.09	9.1772
392.22	38.5409
392.36	40.5005
392.49	11.3543
392.62	15.0611
392.75	25.3985
392.89	18.4967
393.02	23.5393
393.15	10.9721
393.28	34.4879
393.42	24.1660
393.55	23.4464
393.68	10.4265
393.81	33.8131
393.95	32.1883
394.08	28.3239
394.21	20.0075
394.34	19.8973
394.48	22.2982
394.61	11.9709
394.74	16.7874
394.87	14.0551
395.01	31.8122
395.14	17.2197
395.27	5.3348
395.40	16.1923
395.54	23.9756
395.67	1.6482
395.80	15.7751
395.93	31.1877
396.07	29.6435
396.20	24.8621
396.33	27.5658
396.46	29.5533
396.59	35.6452
396.73	17.5329
396.86	15.8342
396.99	33.5165
397.12	48.6471
397.26	0.0000
397.39	4.9414
397.52	24.3980
397.65	17.6835
397.79	0.0000
397.92	34.0231
398.05	46.0067
398.18	23.6541
398.32	13.0134
398.45	20.0773
398.58	26.3301
398.71	17.7963
398.84	16.2029
398.98	16.7304
399.11	23.5631
399.24	18.7887
399.37	19.8416
399.51	24.8174
399.64	24.6439
399.77	20.8778
399.90	24.9906
400.03	14.6503
400.17	9.3111
400.30	11.8168
400.43	13.1066
400.56	6.7190
400.70	20.8892
400.83	25.5152
400.96	25.8663
401.09	18.3056
401.23	20.6420
401.36	16.5034
401.49	18.5265
401.62	24.1355
401.75	32.6497
401.89	25.5085
402.02	22.8225
402.15	21.4146
402.28	21.0529
402.41	23.1665
402.55	15.5664
402.68	13.9025
402.81	20.9931
402.94	23.0411
403.08	13.2378
403.21	18.2052
403.34	28.7005
403.47	19.5561
403.60	8.4664
403.74	16.9066
403.87	20.5904
404.00	18.8141
404.13	25.6475
404.26	25.1720
404.40	21.9135
404.53	28.6367
404.66	17.2075
404.79	12.3923
404.93	26.8438
405.06	24.7970
405.19	14.0852
405.32	16.6108
405.45	22.9597
405.59	23.4644
405.72	2.2241
405.85	13.7283
405.98	25.6152
406.11	20.5152
406.25	4.9890
406.38	25.4697
406.51	22.6675
406.64	18.1988
406.77	13.8209
406.91	20.9198
407.04	23.4205
407.17	22.3201
407.30	10.4717
407.43	8.2565
407.57	14.2076
407.70	14.5523
407.83	16.5708
407.96	12.3146
408.09	22.5359
408.23	23.7593
408.36	9.0746
408.49	4.3008
408.62	24.0722
408.75	18.6637
408.89	13.0266
409.02	17.5761
409.15	16.6939
409.28	19.3399
409.41	6.9554
409.55	5.6963
409.68	21.8387
409.81	18.5462
409.94	8.5449
410.07	24.8328
410.20	24.9493
410.34	15.7158
410.47	15.0644
410.60	20.5569
410.73	16.5714
410.86	19.1657
411.00	19.2802
411.13	22.2580
411.26	14.4885
411.39	15.3437
411.52	12.3633
411.66	15.5438
411.79	14.0600
411.92	19.5729
412.05	19.6828
412.18	14.3671
412.31	8.0789
412.45	18.4843
412.58	16.7353
412.71	9.3745
412.84	17.8381
412.97	24.6950
413.11	14.3901
413.24	3.0020
413.37	12.5387
413.50	14.2573
413.63	6.6574
413.76	6.2511
413.90	18.2325
414.03	15.3045
414.16	12.4921
414.29	5.8794
414.42	12.2873
414.56	11.1089
414.69	12.1684
414.82	9.0401
414.95	17.7891
415.08	10.7837
415.21	20.5761
415.35	14.2123
415.48	8.3147
415.61	19.2227
415.74	24.8761
415.87	1.2100
416.00	8.4533
416.14	21.3153
416.27	12.0827
416.40	6.0952
416.53	18.5904
416.66	20.4615
416.79	11.2708
416.93	10.6759
417.06	12.4759
417.19	14.1014
417.32	16.1647
417.45	12.1742
417.58	14.7718
417.72	16.3663
417.85	11.7429
417.98	8.2471
418.11	15.4380
418.24	12.6766
418.37	11.3407
418.51	7.1457
418.64	6.0483
418.77	11.3033
418.90	11.1519
419.03	6.7444
419.16	17.7425
419.29	24.9611
419.43	9.2440
419.56	8.1990
419.69	17.9178
419.82	15.7441
419.95	7.5153
420.08	10.0095
420.22	10.6530
420.35	8.4672
420.48	12.0298
420.61	8.9447
420.74	18.7383
420.87	23.4141
421.00	18.2705
421.14	9.2382
421.27	14.0365
421.40	13.1193
421.53	10.2911
421.66	12.7389
421.79	16.5182
421.93	19.5686
422.06	14.8790
422.19	11.1469
422.32	11.4188
422.45	15.2665
422.58	9.1916
422.71	7.2616
422.85	13.8101
422.98	16.4203
423.11	13.0115
423.24	16.1444
423.37	18.0558
423.50	14.8297
423.63	13.6675
423.77	11.3912
423.90	6.3912
424.03	7.4560
424.16	11.0753
424.29	10.5787
424.42	14.2568
424.55	15.2992
424.69	14.9677
424.82	14.4517
424.95	9.2112
425.08	8.4106
425.21	9.6501
425.34	7.9846
425.47	7.7611
425.60	12.0218
425.74	10.0755
425.87	9.2992
426.00	13.3928
426.13	11.7319
426.26	11.9802
426.39	8.3258
426.52	10.8545
426.66	16.4860
426.79	9.1120
426.92	5.3024
427.05	12.8982
427.18	13.3375
427.31	8.4179
427.44	12.5692
427.57	17.6654
427.71	15.3713
427.84	9.4558
427.97	6.6411
428.10	11.7307
428.23	18.5438
428.36	9.1264
428.49	7.4705
428.62	10.3878
428.76	13.5416
428.89	6.4201
429.02	8.2652
429.15	17.0947
429.28	16.9840
429.41	12.4748
429.54	8.0625
429.67	15.2283
429.81	14.7314
429.94	10.6671
430.07	4.5981
430.20	10.2187
430.33	11.0311
430.46	7.6959
430.59	12.2252
430.72	16.4508
430.85	15.5176
430.99	11.0860
431.12	8.8423
431.25	9.2356
431.38	12.5139
431.51	6.7425
431.64	6.3050
431.77	10.6240
431.90	11.3803
432.03	7.6810
432.17	10.3402
432.30	14.8042
432.43	13.6099
432.56	9.8549
432.69	7.4768
432.82	8.8797
432.95	8.2674
433.08	8.8258
433.21	9.2939
433.35	14.1437
433.48	13.0262
433.61	13.3775
433.74	10.5973
433.87	12.3883
434.00	11.2765
434.13	11.5856
434.26	9.8031
434.39	13.4196
434.53	13.0798
434.66	14.5012
434.79	11.1405
434.92	14.4526
435.05	13.9237
435.18	9.2918
435.31	7.1044
435.44	12.1038
435.57	13.5510
435.70	11.2465
435.84	8.4742
435.97	11.6168
436.10	13.5697
436.23	10.6109
436.36	12.3928
436.49	18.7448
436.62	14.2108
436.75	10.6367
436.88	10.8823
437.01	13.5584
437.14	13.7084
437.28	11.4322
437.41	9.8750
437.54	12.3403
437.67	14.9013
437.80	6.6093
437.93	8.3800
438.06	14.6705
438.19	14.6432
438.32	9.3324
438.45	13.6649
438.58	15.6378
438.72	14.5717
438.85	12.5912
438.98	10.9063
439.11	12.4484
439.24	12.9491
439.37	7.3831
439.50	7.3296
439.63	11.0707
439.76	13.4487
439.89	12.3834
440.02	11.3336
440.15	11.6360
440.29	13.5155
440.42	10.6348
440.55	6.4130
440.68	12.6313
440.81	14.1107
440.94	6.8804
441.07	8.3013
441.20	15.1570
441.33	12.8368
441.46	10.1074
441.59	13.8212
441.72	14.5226
441.85	12.6112
441.99	9.9962
442.12	10.0839
442.25	9.4799
442.38	11.6392
442.51	10.4905
442.64	11.2258
442.77	12.2100
442.90	13.6870
443.03	10.9636
443.16	9.3500
443.29	11.8270
443.42	10.3031
443.55	11.2266
443.68	11.4194
443.82	14.0452
443.95	12.0327
444.08	13.6098
444.21	12.0688
444.34	12.3879
444.47	12.2805
444.60	14.0220
444.73	10.4340
444.86	9.6731
444.99	10.2117
445.12	10.6648
445.25	8.2214
445.38	9.5970
445.51	12.0222
445.64	15.6566
445.78	9.7864
445.91	9.5686
446.04	14.1019
446.17	10.4651
446.30	4.8026
446.43	11.5284
446.56	14.6586
446.69	9.3209
446.82	9.1376
446.95	11.4284
447.08	11.8859
447.21	9.6193
447.34	11.0328
447.47	13.8736
447.60	11.5573
447.73	10.4978
447.86	11.8199
447.99	11.2471
448.13	11.3991
448.26	11.6398
448.39	9.7494
448.52	9.8454
448.65	11.5378
448.78	9.3860
448.91	12.0882
449.04	12.6226
449.17	12.0932
449.30	12.3555
449.43	11.0064
449.56	10.2853
449.69	13.9304
449.82	11.2901
449.95	9.0924
450.08	12.0130
450.21	12.0130
450.34	7.6231
450.47	10.0935
450.60	12.1384
450.73	12.4890
450.87	11.1635
451.00	7.2071
451.13	9.5305
451.26	8.9246
451.39	8.0920
451.52	9.0639
451.65	14.9056
451.78	14.8715
451.91	11.9649
452.04	9.5217
452.17	11.1733
452.30	11.3515
452.43	7.5144
452.56	11.7266
452.69	11.7368
452.82	10.4917
452.95	11.6852
453.08	11.4259
453.21	11.8037
453.34	13.7912
453.47	10.8199
453.60	9.5118
453.73	12.2968
453.86	10.7072
453.99	11.1167
454.12	12.5526
454.25	12.6127
454.38	11.2559
454.52	10.8985
454.65	11.5570
454.78	11.4201
454.91	11.0004
455.04	11.9278
455.17	9.2870
455.30	8.9351
455.43	12.1416
455.56	10.1424
455.69	8.7257
455.82	12.2875
455.95	11.8769
456.08	9.6014
456.21	11.8914
456.34	11.7973
456.47	11.0999
456.60	10.9501
456.73	9.5543
456.86	10.0846
456.99	11.8313
457.12	9.9388
457.25	9.1698
457.38	10.3197
457.51	9.6563
457.64	8.9641
457.77	11.1987
457.90	12.2875
458.03	11.8250
458.16	11.0424
458.29	11.8225
458.42	12.0395
458.55	12.4986
458.68	11.3614
458.81	8.4571
458.94	10.2574
459.07	11.9514
459.20	10.2367
459.33	10.0658
459.46	13.1440
459.59	12.7227
459.72	8.6410
459.85	9.1395
459.98	11.4666
460.11	13.4462
460.24	9.6245
460.37	10.8523
460.50	11.9832
460.63	12.0423
460.76	9.6075
460.89	10.8279
461.02	12.2234
461.15	12.2054
461.28	9.2746
461.41	11.1683
461.54	12.2293
461.67	10.1627
461.80	9.4684
461.93	11.0145
462.06	10.7819
462.19	11.1196
462.32	11.2008
462.45	11.2963
462.58	11.4596
462.71	11.3176
462.84	10.0797
462.97	10.4345
463.10	9.1066
463.23	9.2668
463.36	9.6819
463.49	9.0236
463.62	9.2436
463.75	10.7528
463.88	12.5359
464.01	8.7610
464.14	10.3540
464.27	11.5157
464.40	10.7182
464.53	9.0396
464.66	10.7430
464.79	10.8767
464.92	9.7873
465.05	10.0613
465.18	10.1575
465.31	11.6636
465.44	11.4915
465.57	9.1195
465.70	9.7275
465.83	11.5890
465.96	9.5892
466.09	8.5165
466.22	11.7866
466.35	11.8608
466.48	10.5003
466.61	10.9323
466.74	10.8508
466.87	9.9371
467.00	8.7240
467.13	9.4950
467.26	11.0911
467.39	11.6852
467.52	10.0353
467.65	11.1360
467.78	9.9288
467.91	8.9165
468.04	8.7303
468.17	11.1996
468.30	11.2607
468.43	10.5295
468.56	9.4812
468.69	10.6858
468.82	10.3857
468.95	10.6107
469.08	11.6589
469.21	11.2241
469.34	9.3902
469.47	9.8735
469.60	9.4368
469.73	8.5074
469.86	11.1033
469.99	12.6490
470.11	11.1148
470.24	10.9232
470.37	12.4947
470.50	12.1222
470.63	11.0767
470.76	9.8947
470.89	11.3777
471.02	11.6459
471.15	9.1263
471.28	9.1103
471.41	11.5678
471.54	11.5885
471.67	9.5913
471.80	10.7958
471.93	11.6915
472.06	12.2505
472.19	9.3258
472.32	9.7375
472.45	10.4862
472.58	10.0379
472.71	9.3525
472.84	11.2626
472.97	10.6945
473.10	11.7655
473.23	11.1696
473.36	10.5010
473.49	10.1978
473.62	10.6795
473.74	10.0344
473.87	11.2718
474.00	11.0109
474.13	10.1542
474.26	10.9926
474.39	10.5578
474.52	9.6956
474.65	11.3543
474.78	12.1739
474.91	10.1400
475.04	10.1491
475.17	10.7165
475.30	8.9695
475.43	8.9864
475.56	10.5658
475.69	11.2777
475.82	10.4136
475.95	11.4555
476.08	11.2781
476.21	11.2657
476.34	9.4730
476.46	10.3918
476.59	10.2150
476.72	11.0528
476.85	10.0813
476.98	10.5802
477.11	10.8831
477.24	10.5301
477.37	8.9638
477.50	10.0927
477.63	10.9625
477.76	10.3920
477.89	10.0901
478.02	11.0168
478.15	10.8073
478.28	10.6975
478.41	10.0454
478.54	10.5408
478.66	10.6479
478.79	10.8133
478.92	10.0889
479.05	10.7200
479.18	10.5233
479.31	10.4079
479.44	10.4012
479.57	10.4847
479.70	10.9400
479.83	11.4900
479.96	10.3498
480.09	9.8547
480.22	10.3785
480.35	10.1391
480.48	10.1806
480.60	10.8351
480.73	11.5077
480.86	11.5191
480.99	11.2948
481.12	10.1096
481.25	10.8838
481.38	10.8572
481.51	10.2785
481.64	10.3049
481.77	11.0477
481.90	10.8660
482.03	10.1562
482.16	10.5419
482.29	10.4536
482.41	10.9358
482.54	10.7871
482.67	10.9383
482.80	11.6432
482.93	11.0438
483.06	10.3757
483.19	10.7380
483.32	11.3246
483.45	10.2123
483.58	10.4853
483.71	10.4696
483.84	10.0814
483.97	9.9861
484.09	10.3635
484.22	10.9482
484.35	11.1815
484.48	11.1082
484.61	10.8988
484.74	11.1756
484.87	10.5477
485.00	10.8707
485.13	10.8972
485.26	11.2072
485.39	10.4024
485.52	10.5526
485.64	9.9276
485.77	10.5598
485.90	10.2054
486.03	11.0599
486.16	11.2858
486.29	11.3836
486.42	11.0004
486.55	10.8416
486.68	10.5001
486.81	10.7520
486.94	10.6792
487.06	10.4503
487.19	10.8866
487.32	11.0199
487.45	10.6706
487.58	11.2266
487.71	10.9606
487.84	10.1791
487.97	10.1550
488.10	10.5574
488.23	10.0043
488.35	10.5167
488.48	11.1893
488.61	11.4163
488.74	11.2115
488.87	10.8889
489.00	10.8297
489.13	11.0690
489.26	10.7903
489.39	10.6560
489.52	11.2285
489.64	11.0690
489.77	10.9687
489.90	11.0194
490.03	11.1249
490.16	11.1376
490.29	10.9738
490.42	11.0105
490.55	11.0606
490.68	11.5427
490.81	11.0413
490.93	11.3451
491.06	11.2382
491.19	10.7847
491.32	10.7484
491.45	11.3106
491.58	11.4743
491.71	11.8458
491.84	11.8330
491.97	11.3390
492.09	11.4425
492.22	10.9035
492.35	10.6191
492.48	11.1901
492.61	10.9950
492.74	10.6600
492.87	11.1792
493.00	11.0107
493.12	10.6772
493.25	11.1108
493.38	11.7079
493.51	11.5750
493.64	11.5957
493.77	11.9315
493.90	11.4943
494.03	10.8274
494.16	11.2782
494.28	11.9167
494.41	11.1210
494.54	11.1170
494.67	11.9154
494.80	11.4322
494.93	10.8100
495.06	11.5004
495.19	11.9124
495.31	11.6206
495.44	11.3547
495.57	11.5552
495.70	12.0238
495.83	12.1379
495.96	11.6165
496.09	11.5334
496.22	11.9766
496.34	11.6157
496.47	11.1380
496.60	11.1686
496.73	11.8045
496.86	11.1814
496.99	11.4814
497.12	11.5672
497.24	11.6767
497.37	11.6669
497.50	11.9983
497.63	11.0137
497.76	10.8326
497.89	11.8078
498.02	11.7186
498.15	11.2274
498.27	11.5021
498.40	11.8175
498.53	10.8816
498.66	11.1396
498.79	11.3049
498.92	11.6964
499.05	11.8499
499.17	11.5298
499.30	11.0676
499.43	11.7224
499.56	11.4530
499.69	11.4001
499.82	12.1817
499.95	12.4940
500.07	12.0773
500.20	11.5623
500.33	11.8504
500.46	11.9678
500.59	11.7562
500.72	11.5295
500.85	12.0439
500.97	12.1674
501.10	11.8580
501.23	11.4311
501.36	11.6248
501.49	11.9358
501.62	11.1921
501.75	11.6227
501.87	11.9399
502.00	11.6966
502.13	11.7357
502.26	12.0616
502.39	11.9058
502.52	12.1321
502.64	11.9870
502.77	11.7405
502.90	11.9340
503.03	11.8766
503.16	11.4624
503.29	11.8093
503.42	12.0672
503.54	11.9587
503.67	11.3832
503.80	12.0908
503.93	12.2713
504.06	11.8150
504.19	11.8329
504.31	12.1456
504.44	11.6512
504.57	11.8516
504.70	12.0871
504.83	12.2016
504.96	12.4343
505.08	12.0881
505.21	11.7381
505.34	12.0579
505.47	11.9533
505.60	11.9419
505.73	11.7219
505.85	11.9983
505.98	12.1797
506.11	12.3512
506.24	12.2008
506.37	12.6030
506.50	12.5254
506.62	12.3304
506.75	11.8501
506.88	12.0296
507.01	12.3224
507.14	12.2656
507.27	12.2645
507.39	12.5599
507.52	12.1849
507.65	12.5915
507.78	12.3503
507.91	11.9485
508.04	11.9225
508.16	12.2375
508.29	12.1376
508.42	12.5057
508.55	12.2745
508.68	12.5316
508.81	12.7312
508.93	12.4018
509.06	12.1995
509.19	12.6931
509.32	12.4640
509.45	12.4330
509.57	12.4695
509.70	12.7291
509.83	12.7691
509.96	12.8204
510.09	12.7639
510.22	13.0280
510.34	12.3049
510.47	12.3563
510.60	12.3246
510.73	12.3712
510.86	12.4652
510.98	12.8468
511.11	12.7346
511.24	13.0213
511.37	12.8720
511.50	12.6249
511.63	12.8196
511.75	12.7764
511.88	12.5336
512.01	12.3877
512.14	12.4622
512.27	12.4005
512.39	12.4875
512.52	12.7403
512.65	12.8841
512.78	12.7351
512.91	12.5453
513.03	12.4950
513.16	12.3856
513.29	12.5504
513.42	12.3751
513.55	12.8510
513.67	13.0613
513.80	12.9916
513.93	12.7190
514.06	12.9619
514.19	12.5493
514.31	12.6703
514.44	12.6893
514.57	12.4818
514.70	12.7943
514.83	13.0719
514.95	12.7148
515.08	12.6448
515.21	12.9693
515.34	12.9018
515.47	12.8095
515.59	12.9830
515.72	12.8487
515.85	13.0490
515.98	12.9343
516.11	12.7739
516.23	12.8924
516.36	13.3264
516.49	12.9743
516.62	12.6942
516.75	13.2891
516.87	13.1878
517.00	12.7002
517.13	12.8465
517.26	13.6094
517.39	13.1924
517.51	12.7414
517.64	13.1454
517.77	13.0756
517.90	12.5537
518.02	12.9080
518.15	13.2421
518.28	12.9093
518.41	12.9178
518.54	13.0854
518.66	12.9372
518.79	13.2018
518.92	13.3714
519.05	13.2579
519.18	13.3283
519.30	13.3700
519.43	13.3452
519.56	13.0546
519.69	13.3786
519.81	13.5468
519.94	13.5244
520.07	13.3645
520.20	13.4306
520.33	13.4577
520.45	13.1413
520.58	12.8550
520.71	12.9440
520.84	13.4084
520.96	13.5060
521.09	13.3216
521.22	13.3712
521.35	13.6258
521.48	13.6428
521.60	13.4036
521.73	13.3339
521.86	13.6518
521.99	13.6227
522.11	13.3950
522.24	13.4402
522.37	13.3615
522.50	13.4696
522.62	13.2483
522.75	13.4387
522.88	13.4358
523.01	13.6873
523.14	13.1250
523.26	13.5089
523.39	13.1031
523.52	13.1175
523.65	13.3672
523.77	13.7803
523.90	13.4511
524.03	13.8065
524.16	13.8734
524.28	13.7440
524.41	13.8889
524.54	14.0364
524.67	13.8637
524.79	13.5501
524.92	13.8434
525.05	13.6181
525.18	13.7633
525.31	13.2593
525.43	13.8067
525.56	14.0490
525.69	13.8572
525.82	13.4904
525.94	14.3206
526.07	14.2578
526.20	13.4384
526.33	13.4816
526.45	13.7681
526.58	13.7141
526.71	13.5737
526.84	14.0989
526.96	14.2582
527.09	14.2164
527.22	14.4062
527.35	14.0556
527.47	14.1195
527.60	14.0689
527.73	13.8971
527.86	13.5395
527.98	14.0028
528.11	13.6701
528.24	14.0066
528.37	14.1085
528.49	13.9626
528.62	14.1642
528.75	14.3229
528.88	13.9809
529.00	14.1884
529.13	14.6316
529.26	13.9997
529.39	13.7266
529.51	14.1829
529.64	14.0511
529.77	13.8065
529.90	14.1794
530.02	14.6448
530.15	14.3738
530.28	14.2857
530.40	14.1899
530.53	14.3392
530.66	14.1153
530.79	14.1590
530.91	14.2367
531.04	14.4654
531.17	14.4381
531.30	14.5635
531.42	14.1991
531.55	14.3761
531.68	14.3619
531.81	14.2507
531.93	14.3525
532.06	14.7043
532.19	14.5114
532.31	14.3724
532.44	14.6123
532.57	14.5618
532.70	14.4239
532.82	14.2475
532.95	14.3402
533.08	14.3404
533.21	14.4151
533.33	14.6703
533.46	14.4441
533.59	14.5394
533.71	14.5487
533.84	14.4903
533.97	14.4930
534.10	14.9389
534.22	14.8491
534.35	14.5457
534.48	14.7250
534.61	14.8389
534.73	14.7588
534.86	14.6014
534.99	14.7959
535.11	14.6500
535.24	14.6467
535.37	14.9559
535.50	14.9290
535.62	14.8606
535.75	14.9030
535.88	14.7140
536.00	14.4954
536.13	14.7893
536.26	15.0096
536.39	14.6983
536.51	14.7720
536.64	14.9038
536.77	14.9017
536.89	14.7688
537.02	15.0248
537.15	14.9642
537.28	15.0869
537.40	14.9663
537.53	14.9482
537.66	15.1323
537.78	15.3111
537.91	15.1237
538.04	15.4613
538.17	15.3426
538.29	14.9676
538.42	14.8171
538.55	15.0857
538.67	14.8823
538.80	15.1623
538.93	15.1513
539.05	15.0741
539.18	14.8275
539.31	15.2031
539.44	15.0605
539.56	15.2565
539.69	15.5791
539.82	15.7717
539.94	15.1245
540.07	15.2845
540.20	15.3684
540.32	15.2085
540.45	14.7707
540.58	15.3458
540.71	15.4344
540.83	15.4726
540.96	15.1895
541.09	15.2880
541.21	15.4486
541.34	15.5327
541.47	15.3547
541.59	15.1998
541.72	15.4456
541.85	15.4635
541.98	15.3966
542.10	15.0348
542.23	15.5308
542.36	15.6005
542.48	15.4059
542.61	15.2679
542.74	15.7181
542.86	15.7005
542.99	15.5248
543.12	15.5809
543.24	15.5225
543.37	15.5897
543.50	15.6160
543.62	15.8424
543.75	15.6656
543.88	15.6436
544.01	15.5400
544.13	15.6438
544.26	15.6274
544.39	15.7226
544.51	15.6966
544.64	15.8590
544.77	15.7313
544.89	15.8585
545.02	15.5209
545.15	15.5150
545.27	15.4224
545.40	15.2612
545.53	15.3447
545.65	15.7304
545.78	15.8539
545.91	15.7802
546.03	16.0562
546.16	15.9338
546.29	15.8835
546.41	16.1123
546.54	16.1408
546.67	15.8123
546.79	15.9988
546.92	15.9694
547.05	15.9168
547.17	15.9441
547.30	16.3442
547.43	16.0173
547.56	16.1966
547.68	15.9984
547.81	16.1659
547.94	16.3002
548.06	16.2027
548.19	16.1754
548.32	16.4428
548.44	16.3866
548.57	16.0465
548.70	16.2502
548.82	16.3385
548.95	16.3902
549.08	16.1418
549.20	16.3461
549.33	16.4768
549.45	16.5105
549.58	16.1359
549.71	16.6368
549.83	16.5836
549.96	16.5122
550.09	16.2424
550.21	16.4510
550.34	16.2536
550.47	16.5734
550.59	16.4996
550.72	16.2913
550.85	16.5135
550.97	16.7071
551.10	16.2112
551.23	16.2482
551.35	16.7338
551.48	16.7335
551.61	16.3977
551.73	16.5076
551.86	16.7326
551.99	16.4552
552.11	16.2230
552.24	16.5924
552.37	16.8132
552.49	16.5247
552.62	16.7366
552.75	16.9908
552.87	16.7792
553.00	16.7723
553.12	16.8276
553.25	16.5725
553.38	16.4580
553.50	16.7990
553.63	16.6946
553.76	16.8207
553.88	17.1204
554.01	17.0694
554.14	16.5917
554.26	16.7428
554.39	16.7440
554.52	16.7990
554.64	16.8577
554.77	17.0500
554.89	16.9550
555.02	17.0287
555.15	16.9666
555.27	16.7456
555.40	16.8882
555.53	17.1943
555.65	17.0240
555.78	16.7110
555.91	17.2259
556.03	17.2977
556.16	16.8721
556.29	16.8308
556.41	17.3060
556.54	17.2509
556.66	16.8514
556.79	17.0003
556.92	17.3630
557.04	17.2089
557.17	17.0698
557.30	17.3589
557.42	17.3104
557.55	17.1753
557.67	17.1260
557.80	17.0489
557.93	17.2899
558.05	17.4091
558.18	17.2690
558.31	17.2599
558.43	17.3121
558.56	17.3006
558.68	17.3766
558.81	17.1289
558.94	17.3051
559.06	17.3970
559.19	17.3547
559.32	17.2524
559.44	17.6660
559.57	17.6373
559.69	17.4989
559.82	17.3316
559.95	17.6157
560.07	17.5066
560.20	17.3147
560.33	17.5467
560.45	17.4214
560.58	17.2827
560.70	17.4209
560.83	17.5046
560.96	17.1970
561.08	17.5333
561.21	17.7030
561.33	17.4982
561.46	17.5974
561.59	17.7501
561.71	17.7578
561.84	17.4041
561.97	17.6840
562.09	17.8432
562.22	17.7638
562.34	17.6451
562.47	17.9386
562.60	17.9212
562.72	17.7627
562.85	17.9277
562.97	18.0281
563.10	17.9271
563.23	17.7396
563.35	17.7139
563.48	17.5516
563.60	17.6701
563.73	17.7876
563.86	17.9673
563.98	18.1253
564.11	18.1457
564.23	18.0989
564.36	17.8556
564.49	17.9125
564.61	18.0486
564.74	18.1407
564.86	18.0677
564.99	18.1776
565.12	18.2151
565.24	18.0870
565.37	18.0747
565.49	18.1347
565.62	18.5050
565.75	18.0524
565.87	17.9462
566.00	18.2700
566.12	18.1533
566.25	17.9147
566.38	18.2415
566.50	18.3489
566.63	18.2564
566.75	18.4130
566.88	18.3515
567.01	18.4426
567.13	18.5551
567.26	18.3523
567.38	18.4495
567.51	18.4265
567.64	18.2969
567.76	18.2928
567.89	18.5712
568.01	18.3330
568.14	18.3764
568.26	18.6071
568.39	18.4335
568.52	18.3503
568.64	18.5194
568.77	18.6426
568.89	18.6506
569.02	18.8534
569.15	18.7857
569.27	18.6493
569.40	18.6286
569.52	18.5999
569.65	18.6653
569.77	18.9343
569.90	18.7874
570.03	18.8079
570.15	18.9402
570.28	18.9761
570.40	18.6554
570.53	18.8041
570.66	18.8368
570.78	18.8849
570.91	18.6857
571.03	18.8809
571.16	19.0848
571.28	19.0960
571.41	19.0706
571.54	19.1179
571.66	19.0991
571.79	19.1852
571.91	19.0885
572.04	18.9087
572.16	19.0821
572.29	19.0959
572.42	19.1154
572.54	19.1587
572.67	19.3400
572.79	19.2543
572.92	19.1962
573.04	19.1906
573.17	19.4373
573.29	19.3204
573.42	19.2780
573.55	19.4064
573.67	19.5230
573.80	19.4242
573.92	19.3744
574.05	19.4188
574.17	19.4332
574.30	19.3031
574.43	19.2120
574.55	19.3832
574.68	19.3868
574.80	19.4591
574.93	19.4852
575.05	19.5871
575.18	19.4905
575.30	19.4123
575.43	19.3638
575.56	19.4089
575.68	19.5801
575.81	19.6377
575.93	19.7372
576.06	19.9034
576.18	20.0758
576.31	19.6478
576.43	19.6191
576.56	19.7811
576.69	19.8000
576.81	19.6626
576.94	19.8671
577.06	20.0378
577.19	19.9644
577.31	19.7249
577.44	19.7291
577.56	19.7048
577.69	19.7673
577.82	20.0299
577.94	20.0586
578.07	19.8479
578.19	20.1487
578.32	20.2389
578.44	19.9288
578.57	20.1336
578.69	20.3395
578.82	20.1666
578.94	20.0631
579.07	20.2176
579.19	20.0759
579.32	20.1048
579.45	20.2763
579.57	20.2248
579.70	20.2522
579.82	20.1524
579.95	20.2672
580.07	20.2115
580.20	20.2365
580.32	20.1939
580.45	20.4242
580.57	20.3097
580.70	20.2552
580.82	20.5530
580.95	20.4815
581.08	20.5644
581.20	20.6333
581.33	20.6735
581.45	20.3581
581.58	20.7717
581.70	20.6310
581.83	20.4858
581.95	20.5832
582.08	20.6777
582.20	20.4564
582.33	20.6139
582.45	20.6474
582.58	20.6649
582.70	20.7114
582.83	20.5836
582.95	20.4435
583.08	20.5219
583.21	20.5926
583.33	20.7862
583.46	20.7756
583.58	20.7982
583.71	20.8611
583.83	20.7462
583.96	20.5349
584.08	20.6243
584.21	20.8106
584.33	21.0201
584.46	20.8967
584.58	20.8258
584.71	20.9924
584.83	21.1230
584.96	20.7326
585.08	20.7839
585.21	20.9439
585.33	20.8137
585.46	20.8192
585.58	21.1192
585.71	21.1331
585.83	21.1751
585.96	21.2186
586.08	20.9694
586.21	21.1209
586.33	21.2130
586.46	21.3323
586.59	21.2515
586.71	21.2719
586.84	21.3415
586.96	21.4855
587.09	21.1059
587.21	21.2960
587.34	21.5325
587.46	21.2038
587.59	21.1259
587.71	21.5568
587.84	21.6224
587.96	21.3988
588.09	21.5146
588.21	21.4828
588.34	21.4383
588.46	21.3384
588.59	21.4946
588.71	21.5770
588.84	21.3638
588.96	21.3300
589.09	21.5197
589.21	21.5731
589.34	21.5255
589.46	21.6702
589.59	21.8425
589.71	21.8232
589.84	21.7535
589.96	21.6725
590.09	21.8257
590.21	21.6579
590.34	21.7322
590.46	21.8365
590.59	21.8191
590.71	22.0709
590.84	22.0701
590.96	21.9234
591.09	21.9696
591.21	22.2595
591.34	21.8903
591.46	21.8520
591.59	21.8667
591.71	21.9825
591.83	21.9379
591.96	22.0381
592.08	22.1395
592.21	22.2639
592.33	22.2079
592.46	22.1588
592.58	22.1755
592.71	22.2229
592.83	21.9808
592.96	22.0493
593.08	22.2104
593.21	22.3405
593.33	22.3827
593.46	22.4566
593.58	22.2853
593.71	22.3647
593.83	22.1270
593.96	22.1542
594.08	22.3583
594.21	22.3977
594.33	22.3266
594.46	22.7612
594.58	22.7196
594.71	22.7170
594.83	22.3266
594.96	22.2777
595.08	22.3275
595.20	22.5536
595.33	22.2661
595.45	22.7337
595.58	22.9171
595.70	22.7993
595.83	22.5696
595.95	22.9819
596.08	23.1376
596.20	22.9212
596.33	22.9625
596.45	23.1283
596.58	22.9779
596.70	22.8375
596.83	22.8562
596.95	22.9835
597.08	22.9520
597.20	22.9687
597.32	23.0413
597.45	23.0575
597.57	22.9815
597.70	22.9592
597.82	23.0417
597.95	23.0334
598.07	23.1133
598.20	23.2169
598.32	23.1477
598.45	22.9674
598.57	23.0865
598.70	23.2184
598.82	22.9313
598.94	22.9766
599.07	23.2184
599.19	23.4798
599.32	23.2422
599.44	23.3652
599.57	23.5317
599.69	23.6764
599.82	23.1847
599.94	23.3416
600.07	23.6700
600.19	23.6790
600.31	23.2761
600.44	23.3063
600.56	23.5056
600.69	23.3682
600.81	23.3608
600.94	23.5563
601.06	23.6070
601.19	23.7246
601.31	23.5328
601.44	23.4473
601.56	23.5844
601.68	23.7341
601.81	23.3581
601.93	23.6811
602.06	23.8661
602.18	23.6775
602.31	23.5945
602.43	23.8247
602.56	23.6926
602.68	23.5175
602.80	23.8061
602.93	23.8715
603.05	23.8923
603.18	24.0386
603.30	24.1797
603.43	24.0325
603.55	24.0379
603.68	23.9698
603.80	23.9050
603.92	23.9069
604.05	24.0919
604.17	24.1833
604.30	24.2031
604.42	24.0331
604.55	24.0939
604.67	24.0005
604.79	23.9656
604.92	23.9809
605.04	24.1463
605.17	24.2223
605.29	24.0773
605.42	24.1552
605.54	24.1777
605.66	24.1870
605.79	24.0991
605.91	24.3444
606.04	24.2039
606.16	24.2873
606.29	24.3342
606.41	24.5050
606.53	24.4649
606.66	24.6268
606.78	24.6010
606.91	24.5882
607.03	24.5736
607.16	24.5006
607.28	24.4247
607.40	24.5280
607.53	24.6862
607.65	24.6399
607.78	24.4905
607.90	24.6905
608.03	24.6422
608.15	24.6959
608.27	24.7071
608.40	25.0473
608.52	24.8845
608.65	25.0202
608.77	24.7873
608.89	24.5319
609.02	24.5521
609.14	24.5629
609.27	24.5358
609.39	24.8784
609.52	25.2008
609.64	25.2545
609.76	25.2867
609.89	25.1598
610.01	25.0412
610.14	25.1745
610.26	24.9705
610.38	25.1617
610.51	25.4637
610.63	25.3967
610.76	25.2397
610.88	25.2310
611.01	25.1534
611.13	25.1443
611.25	25.2325
611.38	25.2705
611.50	25.4529
611.63	25.5231
611.75	25.4152
611.87	25.2118
612.00	25.3091
612.12	25.5888
612.25	25.5500
612.37	25.5276
612.49	25.5720
612.62	25.5502
612.74	25.3770
612.87	25.5983
612.99	25.5872
613.11	25.6605
613.24	25.6586
613.36	25.6652
613.49	25.6116
613.61	25.5452
613.73	25.8362
613.86	25.9206
613.98	25.8829
614.11	25.7909
614.23	25.8805
614.35	25.7212
614.48	25.7165
614.60	25.7230
614.72	25.7562
614.85	25.8298
614.97	25.9276
615.10	25.9110
615.22	25.8621
615.34	26.0447
615.47	26.0426
615.59	25.9323
615.72	26.1336
615.84	26.0068
615.96	25.9427
616.09	26.1368
616.21	26.2323
616.34	26.0489
616.46	26.3511
616.58	26.2962
616.71	26.1539
616.83	26.0660
616.95	26.1236
617.08	26.2435
617.20	26.3596
617.33	26.2613
617.45	26.3274
617.57	26.4485
617.70	26.4063
617.82	26.2592
617.95	26.4152
618.07	26.4485
618.19	26.3196
618.32	26.3499
618.44	26.5733
618.56	26.6656
618.69	26.4999
618.81	26.5615
618.94	26.4604
619.06	26.4431
619.18	26.4858
619.31	26.5953
619.43	26.5069
619.55	26.8492
619.68	26.9386
619.80	26.5451
619.92	26.5745
620.05	26.8841
620.17	26.7671
620.30	26.5864
620.42	27.0166
620.54	27.2165
620.67	27.0845
620.79	26.8293
620.91	26.9654
621.04	26.9506
621.16	27.0270
621.29	26.9964
621.41	27.2141
621.53	27.3346
621.66	27.2112
621.78	26.8452
621.90	26.9899
622.03	27.0763
622.15	26.9734
622.27	27.1811
622.40	27.4664
622.52	27.5903
622.64	27.5750
622.77	27.5003
622.89	27.4530
623.02	27.4838
623.14	27.2964
623.26	27.1402
623.39	27.3111
623.51	27.4835
623.63	27.3247
623.76	27.3333
623.88	27.5769
624.00	27.5813
624.13	27.5352
624.25	27.5754
624.37	27.4837
624.50	27.5918
624.62	27.7146
624.75	27.4983
624.87	27.7550
624.99	27.9863
625.12	27.5683
625.24	27.4094
625.36	27.5889
625.49	27.5453
625.61	27.3797
625.73	27.7030
625.86	27.8479
625.98	27.9749
626.10	27.8869
626.23	28.0337
626.35	28.0834
626.47	28.0417
626.60	27.9731
626.72	27.9890
626.84	28.1487
626.97	28.2559
627.09	28.0234
627.21	27.8576
627.34	28.2110
627.46	28.1562
627.58	27.9043
627.71	28.3840
627.83	28.4466
627.95	27.9378
628.08	27.9568
628.20	28.2458
628.32	28.1421
628.45	28.2599
628.57	28.5162
628.69	28.3633
628.82	28.3742
628.94	28.4121
629.06	28.3367
629.19	28.5781
629.31	28.6854
629.43	28.5767
629.56	28.3331
629.68	28.5880
629.80	28.5666
629.93	28.6834
630.05	28.7230
630.17	29.0410
630.30	28.9025
630.42	28.9283
630.54	29.0861
630.67	28.8069
630.79	28.7891
630.91	28.9764
631.04	28.9071
631.16	28.8680
631.28	29.3271
631.41	29.1840
631.53	29.0274
631.65	29.0253
631.78	28.9409
631.90	29.1239
632.02	29.0313
632.14	29.1161
632.27	29.2899
632.39	29.0887
632.51	28.8806
632.64	29.2399
632.76	29.2611
632.88	29.2497
633.01	29.5391
633.13	29.1430
633.25	29.2830
633.38	29.4860
633.50	29.5501
633.62	29.6942
633.75	29.9271
633.87	29.7788
633.99	29.7284
634.11	29.5995
634.24	29.5111
634.36	29.6850
634.48	29.5119
634.61	29.5538
634.73	29.6996
634.85	29.7548
634.98	29.9064
635.10	29.7307
635.22	29.7295
635.35	29.8766
635.47	29.8261
635.59	29.6836
635.71	30.1254
635.84	30.0131
635.96	29.9705
636.08	29.9534
636.21	29.9661
636.33	30.0282
636.45	30.3256
636.58	30.0550
636.70	30.1986
636.82	30.5447
636.94	30.3631
637.07	30.0752
637.19	30.1926
637.31	30.3120
637.44	30.0510
637.56	30.0910
637.68	30.1933
637.81	30.5625
637.93	30.3587
638.05	30.0689
638.17	30.2682
638.30	30.4296
638.42	30.1651
638.54	30.2169
638.67	30.5965
638.79	30.5113
638.91	30.4732
639.03	30.5023
639.16	30.5975
639.28	30.6991
639.40	30.5684
639.53	30.5801
639.65	30.6763
639.77	30.5969
639.89	30.4454
640.02	30.7362
640.14	30.5536
640.26	30.6061
640.39	30.6716
640.51	30.6378
640.63	30.5482
640.75	30.8435
640.88	30.8868
641.00	30.5986
641.12	30.8997
641.24	31.1532
641.37	30.7210
641.49	30.7603
641.61	31.1300
641.74	31.1505
641.86	30.9079
641.98	31.2441
642.10	31.2749
642.23	31.2741
642.35	31.1570
642.47	31.0961
642.60	31.2988
642.72	31.1667
642.84	31.1555
642.96	31.1790
643.09	31.3592
643.21	31.3674
643.33	31.3090
643.45	31.1616
643.58	31.3005
643.70	31.3453
643.82	31.2454
643.94	31.3605
644.07	31.5491
644.19	31.4044
644.31	31.4239
644.44	31.5172
644.56	31.6407
644.68	31.8090
644.80	32.0198
644.93	31.9893
645.05	31.9669
645.17	31.9398
645.29	31.9193
645.42	31.6935
645.54	31.7084
645.66	31.8514
645.78	31.8205
645.91	31.6104
646.03	31.9222
646.15	32.0745
646.27	31.9711
646.40	31.8897
646.52	32.1630
646.64	32.2245
646.76	32.0123
646.89	31.9408
647.01	31.9455
647.13	32.0612
647.25	31.9923
647.38	31.9681
647.50	32.2685
647.62	32.6203
647.74	32.3885
647.87	32.1701
647.99	32.4234
648.11	32.5041
648.23	32.2213
648.36	32.3759
648.48	32.7194
648.60	32.9055
648.72	32.5272
648.85	32.6839
648.97	32.8007
649.09	32.6760
649.21	32.4941
649.34	32.7155
649.46	32.7403
649.58	32.7988
649.70	32.7174
649.83	32.7102
649.95	32.6459
650.07	32.7391
650.19	32.5306
650.32	32.5603
650.44	32.6805
650.56	32.8345
650.68	32.8981
650.81	32.8738
650.93	33.0977
651.05	33.0628
651.17	33.0810
651.29	33.0050
651.42	33.3099
651.54	33.4325
651.66	33.4398
651.78	33.0434
651.91	33.1223
652.03	33.2244
652.15	33.0804
652.27	33.2125
652.40	33.6547
652.52	33.8016
652.64	33.3137
652.76	33.2874
652.88	33.3579
653.01	33.5876
653.13	33.3760
653.25	33.5631
653.37	33.5894
653.50	33.7341
653.62	33.3600
653.74	33.3740
653.86	33.6985
653.98	33.8512
654.11	33.7632
654.23	33.6547
654.35	33.8403
654.47	33.8559
654.60	33.9844
654.72	33.7637
654.84	34.1124
654.96	34.0898
655.08	34.0579
655.21	33.7958
655.33	33.9784
655.45	34.1006
655.57	34.0987
655.70	33.8808
655.82	34.0171
655.94	34.2980
656.06	34.0848
656.18	34.0214
656.31	34.3431
656.43	34.4321
656.55	34.2309
656.67	34.2128
656.79	34.4390
656.92	34.5246
657.04	34.1837
657.16	34.2188
657.28	34.3632
657.40	34.4392
657.53	34.2318
657.65	34.3700
657.77	34.4921
657.89	34.7464
658.01	34.5141
658.14	34.6104
658.26	34.9894
658.38	35.0185
658.50	34.4827
658.62	34.6092
658.75	34.6391
658.87	34.8082
658.99	34.7246
659.11	34.8827
659.23	34.9577
659.36	34.9942
659.48	34.7541
659.60	34.8117
659.72	35.1128
659.84	35.1301
659.97	34.7960
660.09	34.6348
660.21	34.8133
660.33	35.0114
660.45	34.9638
660.58	35.1837
660.70	35.4658
660.82	35.2182
660.94	34.8311
661.06	34.8174
661.19	35.0397
661.31	34.9999
661.43	34.9889
661.55	35.0528
661.67	35.3063
661.80	35.3033
661.92	35.3380
662.04	35.3682
662.16	35.7191
662.28	35.6737
662.40	35.5855
662.53	35.6904
662.65	35.7020
662.77	35.6984
662.89	35.8069
663.01	35.8849
663.14	35.7534
663.26	36.0349
663.38	35.9443
663.50	35.7106
663.62	35.8359
663.74	35.9842
663.87	35.8409
663.99	35.5289
664.11	35.7788
664.23	35.8494
664.35	35.7208
664.48	35.7986
664.60	36.3448
664.72	36.3540
664.84	36.1431
664.96	36.2684
665.08	36.1988
665.21	36.2965
665.33	36.2428
665.45	36.1563
665.57	36.1418
665.69	36.3624
665.81	36.2426
665.94	36.1797
666.06	36.4293
666.18	36.6122
666.30	36.3794
666.42	36.2098
666.54	36.4444
666.67	36.3112
666.79	36.1763
666.91	36.5037
667.03	36.6258
667.15	36.6376
667.27	36.9357
667.40	36.7731
667.52	36.7097
667.64	36.9660
667.76	36.7977
667.88	36.5715
668.00	36.8815
668.13	36.9639
668.25	36.8582
668.37	36.8362
668.49	37.1194
668.61	37.1311
668.73	36.9743
668.85	36.8594
668.98	37.1334
669.10	37.0449
669.22	36.8201
669.34	37.0400
669.46	37.1097
669.58	36.9947
669.71	37.1288
669.83	37.3154
669.95	37.2461
670.07	37.2832
670.19	37.4777
670.31	37.4535
670.43	37.3582
670.56	37.3572
670.68	37.5044
670.80	37.2001
670.92	37.2370
671.04	37.5291
671.16	37.5950
671.28	37.3640
671.41	37.7275
671.53	37.9874
671.65	37.5640
671.77	37.3959
671.89	37.6544
672.01	37.8023
672.13	37.5406
672.26	38.0694
672.38	38.1643
672.50	37.9976
672.62	37.7489
672.74	37.8594
672.86	37.7404
672.98	37.9037
673.11	37.8863
673.23	38.0275
673.35	38.0153
673.47	38.2604
673.59	38.1903
673.71	37.9671
673.83	37.9534
673.96	38.2040
674.08	37.9983
674.20	38.0693
674.32	38.5049
674.44	38.4994
674.56	38.1924
674.68	38.1852
674.80	38.3520
674.93	38.4392
675.05	38.4428
675.17	38.5202
675.29	38.6704
675.41	38.6575
675.53	38.6646
675.65	38.5161
675.77	38.6874
675.90	38.8902
676.02	38.6236
676.14	38.3460
676.26	38.6315
676.38	38.5770
676.50	38.4760
676.62	38.8634
676.74	39.0676
676.87	38.8729
676.99	38.8350
677.11	38.7037
677.23	38.6873
677.35	38.9698
677.47	39.1178
677.59	39.1309
677.71	39.2565
677.83	39.1360
677.96	39.0234
678.08	39.1993
678.20	39.3995
678.32	39.4985
678.44	39.2002
678.56	39.1961
678.68	39.3587
678.80	39.3730
678.93	39.3010
679.05	39.5435
679.17	39.6034
679.29	39.5150
679.41	39.5286
679.53	39.5117
679.65	39.7298
679.77	39.6842
679.89	39.4542
680.01	39.6981
680.14	39.8993
680.26	39.8166
680.38	39.7213
680.50	39.9165
680.62	39.7559
680.74	39.7352
680.86	39.8686
680.98	39.7545
681.10	39.8983
681.22	40.0544
681.35	40.2229
681.47	39.8510
681.59	40.2520
681.71	40.3472
681.83	39.9995
681.95	39.6376
682.07	40.0765
682.19	40.1270
682.31	39.7539
682.43	40.0661
682.56	40.3007
682.68	40.2005
682.80	40.0578
682.92	40.3289
683.04	40.3371
683.16	40.1628
683.28	40.2668
683.40	40.3005
683.52	40.3619
683.64	40.3770
683.76	40.6095
683.89	40.4511
684.01	40.5752
684.13	40.5701
684.25	40.4304
684.37	40.4952
684.49	40.5982
684.61	40.6367
684.73	40.7770
684.85	40.6052
684.97	40.7189
685.09	41.0624
685.21	40.7344
685.34	40.7202
685.46	41.1184
685.58	40.8007
685.70	40.7639
685.82	41.1834
685.94	41.1300
686.06	41.0720
686.18	41.3219
686.30	41.0983
686.42	41.2177
686.54	40.9926
686.66	41.0494
686.79	40.7453
686.91	40.8390
687.03	40.9017
687.15	41.2633
687.27	41.0572
687.39	41.4330
687.51	41.5397
687.63	41.3920
687.75	41.1221
687.87	41.5915
687.99	41.5454
688.11	41.3345
688.23	41.2971
688.35	41.5853
688.48	41.3879
688.60	41.3515
688.72	41.5260
688.84	41.7567
688.96	41.8671
689.08	41.4641
689.20	41.5129
689.32	41.8015
689.44	41.8217
689.56	41.6705
689.68	42.1055
689.80	42.1778
689.92	41.9206
690.04	41.8171
690.16	41.8735
690.28	42.1733
690.41	42.1409
690.53	42.0716
690.65	42.0233
690.77	42.0523
690.89	41.8537
691.01	41.9843
691.13	42.0657
691.25	42.2876
691.37	42.5092
691.49	42.0823
691.61	41.9723
691.73	42.2444
691.85	42.2780
691.97	41.8878
692.09	42.1428
692.21	42.1823
692.33	42.2619
692.45	42.1536
692.57	42.2035
692.70	42.6332
692.82	42.7708
692.94	42.5247
693.06	42.6229
693.18	42.9534
693.30	42.5935
693.42	42.5140
693.54	42.6535
693.66	42.7910
693.78	42.6772
693.90	42.8571
694.02	43.0735
694.14	43.0632
694.26	42.7868
694.38	42.7248
694.50	42.8917
694.62	42.8982
694.74	42.8932
694.86	43.0155
694.98	43.0048
695.10	43.0351
695.22	43.0228
695.34	43.1162
695.46	43.1196
695.58	43.3792
695.71	43.3513
695.83	43.0278
695.95	43.1453
696.07	43.3297
696.19	43.4104
696.31	43.0774
696.43	43.3636
696.55	43.4301
696.67	43.3965
696.79	43.4047
696.91	43.3990
697.03	43.5146
697.15	43.6208
697.27	43.4236
697.39	43.4042
697.51	43.8128
697.63	43.5684
697.75	43.4217
697.87	43.7893
697.99	43.7358
698.11	43.6796
698.23	43.9452
698.35	43.9515
698.47	43.9896
698.59	43.8237
698.71	44.0023
698.83	44.0275
698.95	44.0865
699.07	43.9490
699.19	44.3017
699.31	44.1111
699.43	44.1762
699.55	44.1937
699.67	44.3084
699.79	44.2006
699.91	44.2796
700.03	44.2958
700.15	44.2599
700.27	44.3770
700.39	44.3348
700.51	44.3756
700.63	44.2143
700.75	44.3701
700.87	44.1762
700.99	44.4089
701.11	44.4431
701.24	44.4093
701.36	44.2997
701.48	44.5911
701.60	44.2532
701.72	44.3543
701.84	44.7336
701.96	44.7115
702.08	44.4304
702.20	44.6917
702.32	44.7456
702.44	44.7441
702.56	44.9111
702.68	44.7673
702.80	44.6954
702.92	44.7553
703.04	44.7275
703.16	44.8486
703.28	45.1678
703.40	45.2703
703.52	45.1454
703.64	45.1111
703.76	45.0552
703.88	45.0998
704.00	44.9761
704.12	45.0056
704.24	44.9174
704.36	44.9883
704.48	44.9347
704.60	45.1382
704.72	44.9791
704.84	45.0283
704.96	45.1262
705.07	45.2598
705.19	45.1532
705.31	45.5239
705.43	45.5469
705.55	45.4111
705.67	45.6520
705.79	45.9033
705.91	45.7362
706.03	45.8567
706.15	45.9787
706.27	45.7274
706.39	45.7441
706.51	45.7870
706.63	45.7435
706.75	45.4540
706.87	45.5212
706.99	45.6297
707.11	45.7086
707.23	45.7761
707.35	45.9137
707.47	45.7832
707.59	45.7383
707.71	45.7254
707.83	45.9098
707.95	45.6905
708.07	45.8300
708.19	46.1127
708.31	46.1597
708.43	45.9180
708.55	46.3542
708.67	46.3290
708.79	46.0309
708.91	45.9521
709.03	46.2007
709.15	46.1151
709.27	46.1937
709.39	46.1232
709.51	46.1954
709.63	46.3857
709.75	46.3197
709.87	46.3535
709.99	46.6145
710.11	46.9702
710.23	46.4347
710.35	46.5488
710.47	46.5636
710.58	46.3098
710.70	46.1380
710.82	46.5024
710.94	46.5264
711.06	46.6838
711.18	46.7033
711.30	46.5696
711.42	46.4974
711.54	46.7839
711.66	46.6045
711.78	46.4521
711.90	46.7476
712.02	47.1338
712.14	46.7232
712.26	46.5563
712.38	46.9700
712.50	46.9549
712.62	46.7562
712.74	46.6956
712.86	47.0731
712.98	47.1569
713.10	46.9181
713.22	46.8368
713.34	47.0773
713.45	47.0626
713.57	46.9211
713.69	46.9620
713.81	47.0793
713.93	47.4756
714.05	47.1877
714.17	47.0479
714.29	47.3696
714.41	47.2873
714.53	47.0527
714.65	47.5449
714.77	47.4241
714.89	47.3238
715.01	47.4478
715.13	47.5086
715.25	47.4931
715.37	47.7235
715.49	47.6890
715.61	47.5085
715.72	47.5923
715.84	47.5839
715.96	47.5047
716.08	47.3973
716.20	47.6521
716.32	47.6348
716.44	47.5546
716.56	47.5047
716.68	47.6266
716.80	47.7113
716.92	47.6691
717.04	47.7079
717.16	48.1143
717.28	48.0654
717.40	47.9583
717.52	47.9648
717.63	47.9421
717.75	47.9207
717.87	48.2306
717.99	48.1075
718.11	48.0655
718.23	48.0955
718.35	48.3559
718.47	48.2351
718.59	48.4551
718.71	48.4335
718.83	48.6944
718.95	48.4543
719.07	48.4746
719.19	48.4471
719.30	48.6080
719.42	48.3997
719.54	48.3534
719.66	48.5727
719.78	48.5976
719.90	48.6549
720.02	48.6027
720.14	48.6605
720.26	48.5431
720.38	48.8107
720.50	48.6202
720.62	48.8649
720.74	48.8061
720.85	48.4519
720.97	48.4343
721.09	48.4797
721.21	48.3625
721.33	48.5041
721.45	48.8681
721.57	49.0266
721.69	48.9211
721.81	48.7967
721.93	49.0009
722.05	49.2510
722.16	49.0494
722.28	49.1410
722.40	49.0628
722.52	49.1910
722.64	48.9142
722.76	48.7195
722.88	49.0474
723.00	49.2666
723.12	49.2940
723.24	49.1503
723.36	49.1987
723.47	49.1656
723.59	49.1737
723.71	49.0708
723.83	49.3813
723.95	49.3569
724.07	48.9732
724.19	49.2116
724.31	49.4809
724.43	49.5930
724.55	49.1699
724.66	49.7386
724.78	49.8407
724.90	49.4364
725.02	49.2374
725.14	50.1249
725.26	49.9434
725.38	49.6238
725.50	49.6839
725.62	49.9048
725.74	50.0675
725.85	50.3008
725.97	49.2023
726.09	49.5157
726.21	49.8106
726.33	49.6259
726.45	49.5041
726.57	50.8184
726.69	50.5455
726.81	50.1272
726.92	49.8579
727.04	49.8572
727.16	49.9024
727.28	50.0238
727.40	49.6992
727.52	49.6017
727.64	49.6176
727.76	49.8033
727.88	49.8131
727.99	50.1501
728.11	50.4474
728.23	50.5573
728.35	50.3966
728.47	50.2933
728.59	50.5611
728.71	50.5731
728.83	50.3520
728.94	50.2372
729.06	50.4123
729.18	50.3647
729.30	50.1693
729.42	50.1539
729.54	50.4374
729.66	50.2746
729.78	50.1612
729.90	50.6124
730.01	50.7569
730.13	50.6717
730.25	50.7256
730.37	50.8333
730.49	50.6405
730.61	50.6989
730.73	50.7543
730.84	50.8325
730.96	51.0241
731.08	51.1760
731.20	50.6863
731.32	50.8075
731.44	51.0022
731.56	50.6498
731.68	50.5207
731.79	51.1255
731.91	50.8773
732.03	50.8109
732.15	51.0201
732.27	50.8503
732.39	51.0365
732.51	51.3538
732.62	51.0801
732.74	51.1393
732.86	51.5054
732.98	51.3050
733.10	50.9415
733.22	51.4459
733.34	51.3611
733.45	51.2975
733.57	51.2936
733.69	51.4941
733.81	51.4298
733.93	51.4368
734.05	51.3636
734.17	51.4608
734.28	51.7433
734.40	51.7177
734.52	51.4533
734.64	51.5261
734.76	51.8211
734.88	51.6321
735.00	51.2578
735.11	51.8169
735.23	52.1470
735.35	51.6541
735.47	51.6982
735.59	52.0118
735.71	51.7253
735.83	51.3883
735.94	51.5001
736.06	51.4034
736.18	51.4609
736.30	51.8626
736.42	52.0466
736.54	51.7061
736.65	51.9028
736.77	52.0369
736.89	51.3543
737.01	51.6023
737.13	52.2757
737.25	52.1180
737.36	51.9287
737.48	52.5572
737.60	52.2329
737.72	51.8893
737.84	52.1104
737.96	52.0006
738.08	52.0402
738.19	52.0015
738.31	52.2333
738.43	52.0841
738.55	52.4281
738.67	52.3014
738.79	52.3356
738.90	52.5529
739.02	52.7761
739.14	52.5937
739.26	52.5266
739.38	52.7723
739.50	52.6374
739.61	52.5354
739.73	52.5323
739.85	52.3769
739.97	52.5651
740.09	52.5616
740.20	52.4635
740.32	52.8223
740.44	53.0820
740.56	52.7413
740.68	52.7750
740.80	52.7080
740.91	52.4105
741.03	52.5478
741.15	52.4569
741.27	52.4608
741.39	52.4777
741.51	52.6328
741.62	52.6085
741.74	52.8601
741.86	52.8651
741.98	53.0701
742.10	53.0345
742.21	53.1471
742.33	52.7648
742.45	52.8667
742.57	52.8149
742.69	52.9592
742.80	52.9562
742.92	53.3892
743.04	53.0388
743.16	53.3618
743.28	53.3579
743.40	53.3811
743.51	53.2915
743.63	53.6544
743.75	53.3880
743.87	53.3014
743.99	53.2125
744.10	53.4005
744.22	53.2542
744.34	53.1627
744.46	53.4353
744.58	53.2471
744.69	53.1857
744.81	53.6234
744.93	53.5510
745.05	53.1062
745.17	53.3947
745.28	53.4347
745.40	53.2309
745.52	53.4260
745.64	53.8526
745.76	54.0639
745.87	53.9005
745.99	54.0439
746.11	54.2785
746.23	54.3636
746.35	53.7158
746.46	53.8121
746.58	53.6858
746.70	53.5697
746.82	53.4837
746.94	54.0745
747.05	54.3242
747.17	54.4744
747.29	54.0235
747.41	54.2695
747.53	54.2338
747.64	53.9180
747.76	53.6225
747.88	54.2175
748.00	54.0960
748.12	54.1137
748.23	54.1594
748.35	54.2300
748.47	54.2962
748.59	54.2192
748.70	54.1494
748.82	54.2092
748.94	54.2271
749.06	54.2234
749.18	54.0441
749.29	54.1025
749.41	54.3315
749.53	54.3764
749.65	54.5203
749.76	54.7696
749.88	54.6159
750.00	54.3782
750.12	54.5351
750.24	54.5569
750.35	54.3187
750.47	54.5743
750.59	54.5682
750.71	54.8582
750.82	54.8123
750.94	55.0765
751.06	55.0413
751.18	55.1850
751.30	54.7807
751.41	54.7720
751.53	54.8631
751.65	54.6887
751.77	54.5962
751.88	55.1390
752.00	54.8902
752.12	54.7832
752.24	55.0376
752.35	55.1305
752.47	54.5925
752.59	55.0998
752.71	54.8904
752.83	55.1065
752.94	55.1486
753.06	55.3392
753.18	55.1929
753.30	55.4665
753.41	55.2191
753.53	55.1674
753.65	55.3857
753.77	55.2832
753.88	55.1432
754.00	54.8449
754.12	55.1468
754.24	55.4457
754.35	55.3133
754.47	55.3573
754.59	55.8694
754.71	55.8916
754.82	55.2740
754.94	55.4236
755.06	55.5051
755.18	55.4761
755.29	55.1945
755.41	55.4679
755.53	55.5406
755.65	55.5860
755.76	55.1337
755.88	55.2716
756.00	55.5692
756.12	55.5448
756.23	55.1301
756.35	55.5625
756.47	55.8295
756.59	55.5684
756.70	55.7223
756.82	56.0569
756.94	55.9288
757.06	55.7889
757.17	55.9654
757.29	55.7080
757.41	55.8514
757.53	55.9429
757.64	55.7832
757.76	55.5014
757.88	55.6800
758.00	55.9353
758.11	55.8653
758.23	56.0437
758.35	56.0406
758.47	56.1649
758.58	56.0172
758.70	56.3283
758.82	56.2174
758.94	56.5867
759.05	56.5809
759.17	56.1997
759.29	56.1172
759.40	56.3403
759.52	56.0235
759.64	55.7904
759.76	56.1494
759.87	56.2034
759.99	56.3250
760.11	56.4323
760.23	56.5460
760.34	56.6421
760.46	56.5973
760.58	56.2019
760.70	56.2032
760.81	56.2303
760.93	56.2166
761.05	56.4211
761.16	56.7681
761.28	57.0704
761.40	56.8439
761.52	56.7565
761.63	56.7135
761.75	56.8627
761.87	56.6559
761.98	57.0818
762.10	57.0842
762.22	57.3016
762.34	57.0442
762.45	56.5052
762.57	56.6349
762.69	56.6667
762.81	56.6865
762.92	56.6355
763.04	56.9008
763.16	56.8120
763.27	56.7989
763.39	56.3266
763.51	56.5285
763.63	57.1101
763.74	57.1311
763.86	57.3239
763.98	57.3421
764.09	57.4975
764.21	57.3445
764.33	57.2900
764.44	57.2560
764.56	57.4969
764.68	57.6110
764.80	57.2107
764.91	57.2756
765.03	57.4058
765.15	57.6272
765.26	57.1848
765.38	57.5218
765.50	57.4765
765.62	57.3268
765.73	57.3556
765.85	57.5162
765.97	57.7092
766.08	57.8590
766.20	57.8738
766.32	57.4682
766.43	57.5131
766.55	57.3335
766.67	57.2626
766.79	57.4568
766.90	57.8210
767.02	58.0471
767.14	57.4528
767.25	57.4101
767.37	57.4571
767.49	57.0655
767.60	56.7195
767.72	57.5094
767.84	57.7812
767.95	57.5230
768.07	57.6841
768.19	57.8981
768.31	57.8941
768.42	57.7580
768.54	57.6469
768.66	57.7262
768.77	57.9279
768.89	57.8237
769.01	57.6065
769.12	57.9291
769.24	58.0891
769.36	58.0394
769.47	57.8885
769.59	58.0336
769.71	58.0469
769.82	58.2965
769.94	58.0527
770.06	58.4544
770.17	58.4669
770.29	58.3056
770.41	58.2896
770.53	58.4808
770.64	58.1993
770.76	58.1446
770.88	58.6727
770.99	58.5020
771.11	58.6459
771.23	58.5391
771.34	58.5327
771.46	58.2764
771.58	58.2174
771.69	57.8998
771.81	58.4413
771.93	58.3606
772.04	58.3596
772.16	58.2295
772.28	58.5351
772.39	58.1799
772.51	58.6586
772.63	58.7808
772.74	58.3635
772.86	58.6194
772.98	58.9146
773.09	58.6765
773.21	58.4979
773.33	59.2648
773.44	58.8454
773.56	58.4859
773.68	58.7749
773.79	58.9403
773.91	58.8689
774.03	58.6618
774.14	59.0342
774.26	59.1797
774.38	59.0353
774.49	58.8718
774.61	59.3004
774.73	59.2981
774.84	58.9650
774.96	59.1166
775.08	59.1550
775.19	59.0341
775.31	59.0449
775.43	59.3119
775.54	58.8972
775.66	59.2341
775.77	59.0783
775.89	58.7446
776.01	58.5205
776.12	59.1971
776.24	59.1381
776.36	59.1177
776.47	59.0764
776.59	59.4171
776.71	59.3692
776.82	59.2362
776.94	59.1642
777.06	59.7473
777.17	59.7554
777.29	59.3985
777.41	59.4446
777.52	59.5558
777.64	59.7260
777.75	59.6227
777.87	59.5491
777.99	59.5775
778.10	59.9340
778.22	59.7441
778.34	59.5193
778.45	59.7970
778.57	59.9546
778.69	59.5200
778.80	59.5336
778.92	59.9263
779.04	59.9463
779.15	59.6938
779.27	59.8032
779.38	59.8710
779.50	59.6333
779.62	59.9790
779.73	59.4642
779.85	59.8346
779.97	59.9035
780.08	59.6674
780.20	59.1491
780.31	59.8791
780.43	59.9648
780.55	59.5458
780.66	59.2206
780.78	59.7175
780.90	59.8893
781.01	59.8484
781.13	59.6229
781.25	60.4024
781.36	60.2706
781.48	59.7162
781.59	59.5091
781.71	60.2521
781.83	60.4238
781.94	59.9240
782.06	60.3443
782.18	61.1425
782.29	60.6478
782.41	60.2374
782.52	60.7666
782.64	60.9365
782.76	60.9118
782.87	60.6444
782.99	60.1114
783.10	60.3519
783.22	60.1792
783.34	59.5133
783.45	60.1558
783.57	60.6089
783.69	59.9260
783.80	59.8763
783.92	60.1623
784.03	59.9537
784.15	60.2077
784.27	60.5312
784.38	60.4884
784.50	60.5287
784.61	60.7569
784.73	60.9624
784.85	60.7296
784.96	60.6421
785.08	60.5163
785.19	60.6643
785.31	60.6072
785.43	60.5732
785.54	60.6433
785.66	60.4083
785.77	60.6421
785.89	60.5308
786.01	60.8398
786.12	60.6272
786.24	60.8215
786.35	60.4739
786.47	60.7090
786.59	60.6329
786.70	61.0086
786.82	61.0154
786.93	60.8699
787.05	60.7418
787.17	61.0453
787.28	60.9703
787.40	60.9755
787.51	61.4796
787.63	61.2345
787.75	60.8680
787.86	61.1361
787.98	61.2740
788.09	60.7088
788.21	60.8987
788.33	61.6090
788.44	61.3274
788.56	61.5526
788.67	61.7132
788.79	62.0160
788.91	62.0114
789.02	61.7083
789.14	61.3614
789.25	61.6463
789.37	61.3821
789.48	61.2648
789.60	61.5573
789.72	61.4216
789.83	61.6504
789.95	62.0169
790.06	61.4342
790.18	61.4156
790.30	61.6727
790.41	61.4023
790.53	61.3005
790.64	61.6307
790.76	61.9382
790.87	61.8928
790.99	61.9097
791.11	61.8519
791.22	61.6524
791.34	61.4967
791.45	61.6879
791.57	61.7360
791.68	61.2336
791.80	61.4902
791.92	61.8686
792.03	61.8719
792.15	61.8887
792.26	62.0760
792.38	62.0019
792.49	61.9118
792.61	62.0628
792.73	62.6132
792.84	64.5302
792.96	59.8308
793.07	60.4467
793.19	61.4534
793.30	61.6117
793.42	60.5102
793.54	64.3686
793.65	63.9273
793.77	63.2145
793.88	62.2333
794.00	61.7831
794.11	62.4057
794.23	62.5248
794.34	62.6644
794.46	62.0971
794.58	61.5817
794.69	62.6223
794.81	62.8748
794.92	61.5789
795.04	62.0213
795.15	62.4736
795.27	62.2131
795.39	61.8211
795.50	62.6800
795.62	63.1627
795.73	63.0459
795.85	62.2318
795.96	62.4121
796.08	62.4887
796.19	62.6075
796.31	62.7741
796.42	62.8856
796.54	62.9318
796.66	63.2329
796.77	62.3453
796.89	62.8103
797.00	63.3289
797.12	62.7474
797.23	62.1527
797.35	62.5658
797.46	61.9953
797.58	62.1077
797.69	62.4257
797.81	62.8644
797.93	63.3471
798.04	63.1982
798.16	63.2592
798.27	63.4688
798.39	63.5895
798.50	63.6730
798.62	63.3567
798.73	63.4031
798.85	63.2864
798.96	62.6343
799.08	62.3677
799.19	63.1527
799.31	63.3695
799.43	63.2704
799.54	63.1743
799.66	63.3870
799.77	63.9036
799.89	63.5595
800.00	63.0775
800.12	62.9265
800.23	63.2599
800.35	63.0990
800.46	62.7265
800.58	63.1664
800.69	63.9577
800.81	63.1787
800.92	63.1659
801.04	63.8835
801.16	64.1309
801.27	63.9831
801.39	64.4500
801.50	63.7262
801.62	63.1717
801.73	63.7087
801.85	63.5812
801.96	63.1082
802.08	63.9980
802.19	64.3881
802.31	63.1743
802.42	63.1402
802.54	63.9552
802.65	63.1881
802.77	63.7129
802.88	63.7032
803.00	64.1578
803.11	63.9195
803.23	64.0375
803.34	63.6548
803.46	63.8218
803.57	63.9162
803.69	63.4094
803.80	63.7936
803.92	63.6374
804.03	63.8746
804.15	63.4744
804.26	64.3131
804.38	64.0554
804.50	63.8012
804.61	63.9259
804.73	64.6492
804.84	64.1837
804.96	64.4797
805.07	64.5316
805.19	64.3461
805.30	63.9097
805.42	63.9738
805.53	64.0442
805.65	64.4550
805.76	64.5710
805.88	64.1893
805.99	64.3817
806.11	64.1076
806.22	63.8289
806.34	64.0329
806.45	63.8487
806.57	64.0695
806.68	63.9815
806.80	63.9038
806.91	64.3566
807.03	65.1039
807.14	64.9397
807.26	64.8151
807.37	65.4785
807.49	64.8124
807.60	64.0475
807.72	64.1433
807.83	64.5506
807.95	63.9408
808.06	63.8068
808.17	64.5289
808.29	64.0782
808.40	63.6599
808.52	63.5401
808.63	64.0359
808.75	63.6591
808.86	64.0084
808.98	64.1806
809.09	64.5702
809.21	64.3492
809.32	65.2741
809.44	64.9898
809.55	65.6599
809.67	65.3212
809.78	65.0584
809.90	64.7836
810.01	64.3299
810.13	64.3055
810.24	64.9711
810.36	65.5078
810.47	64.7825
810.59	64.7070
810.70	64.6241
810.82	64.4104
810.93	64.4542
811.05	65.0073
811.16	65.4553
811.27	64.2475
811.39	64.6073
811.50	65.5212
811.62	65.0496
811.73	65.1301
811.85	65.8568
811.96	65.4029
812.08	64.4946
812.19	64.9745
812.31	65.7220
812.42	65.7043
812.54	65.2838
812.65	65.1859
812.77	64.9282
812.88	64.3271
813.00	65.1783
813.11	65.8627
813.22	66.3047
813.34	65.5777
813.45	64.8404
813.57	64.7044
813.68	65.3814
813.80	65.5107
813.91	65.1854
814.03	66.4770
814.14	65.9858
814.26	64.8988
814.37	64.9102
814.49	66.2955
814.60	65.4425
814.71	65.9473
814.83	66.1267
814.94	65.3888
815.06	65.7719
815.17	67.1966
815.29	65.3697
815.40	65.6337
815.52	66.5648
815.63	65.6839
815.75	65.6189
815.86	66.9575
815.97	66.1007
816.09	65.1689
816.20	66.7497
816.32	65.7615
816.43	66.2435
816.55	65.4864
816.66	66.4322
816.78	65.6073
816.89	66.3620
817.00	66.8268
817.12	67.4023
817.23	66.8741
817.35	67.5645
817.46	65.5270
817.58	65.1317
817.69	66.1771
817.81	66.0987
817.92	65.0233
818.03	67.2459
818.15	67.5098
818.26	67.1531
818.38	71.1715
818.49	77.1005
818.61	55.8640
818.72	56.6373
818.83	63.2357
818.95	60.3751
819.06	53.5031
819.18	76.1136
819.29	74.3709
819.41	67.4387
819.52	66.3564
819.64	68.1248
819.75	68.0146
819.86	66.7647
819.98	67.0815
820.09	68.1765
820.21	66.3963
820.32	64.4908
820.44	67.4012
820.55	67.2729
820.66	66.4316
820.78	66.7904
820.89	68.9815
821.01	67.3873
821.12	69.1415
821.23	66.8925
821.35	66.6800
821.46	67.9500
821.58	69.2826
821.69	65.8766
821.81	67.2932
821.92	66.3864
822.03	66.4906
822.15	66.4413
822.26	66.9443
822.38	67.0308
822.49	68.3643
822.61	65.5322
822.72	64.9336
822.83	68.2034
822.95	67.5470
823.06	65.7778
823.18	66.9092
823.29	67.9486
823.40	70.2969
823.52	66.3502
823.63	68.7090
823.75	72.9396
823.86	68.5878
823.97	66.9893
824.09	72.2192
824.20	73.7357
824.32	69.5562
824.43	68.0568
824.55	68.5380
824.66	70.6249
824.77	66.0456
824.89	67.4203
825.00	70.3704
825.12	69.7145
825.23	71.1372
825.34	69.8419
825.46	69.2881
825.57	75.9702
825.69	72.8347
825.80	72.1036
825.91	73.6025
826.03	76.4893
826.14	70.8550
826.26	72.0964
826.37	68.9363
826.48	78.4146
826.60	75.2961
826.71	76.5089
826.83	69.4421
826.94	67.1509
827.05	65.7147
827.17	68.6962
827.28	73.4829
827.39	79.8397
827.51	84.4937
827.62	83.8749
827.74	91.0227
827.85	91.3306
827.96	76.3033
828.08	89.9922
828.19	123.4063
828.31	105.5217
828.42	89.7822
828.53	104.4977
828.65	11.0397
828.76	0.0000
828.87	0.0000
828.99	0.0000
