Wavelength (nm)	Reflectance (%)
377.35	0.0000
377.48	0.0000
377.62	0.0000
377.75	0.0000
377.88	0.0000
378.02	44.9524
378.15	200.0000
378.28	200.0000
378.41	73.7778
378.55	200.0000
378.68	0.0000
378.81	200.0000
378.95	200.0000
379.08	200.0000
379.21	200.0000
379.35	109.0323
379.48	145.2558
379.61	143.2276
379.74	80.2213
379.88	0.0000
380.01	30.9072
380.14	60.4738
380.28	15.3795
380.41	12.0084
380.54	99.0621
380.68	96.3258
380.81	48.0330
380.94	31.0831
381.07	57.6218
381.21	60.7400
381.34	0.0000
381.47	16.2053
381.61	79.2256
381.74	57.4638
381.87	0.0000
382.00	46.2305
382.14	71.2606
382.27	6.8435
382.40	0.0000
382.54	41.7792
382.67	49.7245
382.80	13.8702
382.93	35.0456
383.07	45.6296
383.20	41.1465
383.33	66.4732
383.47	27.2857
383.60	26.6111
383.73	56.5494
383.86	54.5075
384.00	10.6172
384.13	47.8210
384.26	58.9403
384.40	27.9817
384.53	12.4288
384.66	31.2202
384.79	50.2760
384.93	41.4344
385.06	21.2266
385.19	25.1429
385.33	28.8608
385.46	5.6245
385.59	16.4823
385.72	51.5423
385.86	42.3890
385.99	41.8086
386.12	44.2663
386.25	17.8326
386.39	25.9415
386.52	42.8285
386.65	35.6713
386.79	13.2126
386.92	46.1357
387.05	52.2808
387.18	25.3112
387.32	16.5473
387.45	56.7566
387.58	46.6319
387.71	29.5730
387.85	36.2622
387.98	36.0813
388.11	35.5419
388.25	21.8656
388.38	11.1186
388.51	20.6763
388.64	42.8534
388.78	42.3636
388.91	15.7005
389.04	37.8152
389.17	33.7053
389.31	0.1543
389.44	0.0000
389.57	32.5122
389.70	31.8819
389.84	39.1641
389.97	42.4623
390.10	48.1515
390.24	50.2165
390.37	27.0080
390.50	22.5338
390.63	27.8462
390.77	19.3829
390.90	19.8547
391.03	36.3333
391.16	27.9865
391.30	29.8062
391.43	43.5005
391.56	20.2303
391.69	21.9082
391.83	38.6009
391.96	15.2197
392.09	3.8668
392.22	32.6667
392.36	33.6915
392.49	3.1246
392.62	6.1004
392.75	17.3390
392.89	13.0196
393.02	20.4859
393.15	10.4272
393.28	36.1322
393.42	27.5946
393.55	26.7678
393.68	14.3166
393.81	38.0748
393.95	36.1431
394.08	30.7533
394.21	21.5229
394.34	20.6563
394.48	22.7673
394.61	12.7140
394.74	18.7948
394.87	16.8015
395.01	34.5814
395.14	19.7084
395.27	6.9494
395.40	16.9070
395.54	24.4634
395.67	2.3241
395.80	16.7873
395.93	33.3646
396.07	32.4242
396.20	27.9511
396.33	30.7761
396.46	32.6254
396.59	37.9096
396.73	19.0900
396.86	16.4374
396.99	33.5583
397.12	47.7404
397.26	0.0000
397.39	2.8828
397.52	23.1739
397.65	17.0471
397.79	0.0000
397.92	36.5931
398.05	48.7248
398.18	25.1251
398.32	12.4698
398.45	16.4571
398.58	20.3782
398.71	10.9894
398.84	9.5749
398.98	10.9913
399.11	19.5476
399.24	15.3976
399.37	17.0283
399.51	23.1309
399.64	24.7024
399.77	22.9518
399.90	29.3969
400.03	20.6779
400.17	15.5751
400.30	17.9379
400.43	17.6871
400.56	9.9094
400.70	22.6739
400.83	27.4139
400.96	27.1501
401.09	19.4352
401.23	22.1327
401.36	18.6067
401.49	19.6361
401.62	24.8954
401.75	33.2514
401.89	25.2188
402.02	21.4197
402.15	19.6331
402.28	18.9527
402.41	20.9344
402.55	13.8629
402.68	12.8813
402.81	21.0014
402.94	24.4376
403.08	15.9946
403.21	21.3977
403.34	32.1606
403.47	22.6321
403.60	10.6413
403.74	17.5728
403.87	20.6383
404.00	18.4624
404.13	25.1429
404.26	24.4785
404.40	21.5125
404.53	27.7678
404.66	15.9193
404.79	10.7077
404.93	24.7431
405.06	22.7883
405.19	13.2431
405.32	16.6404
405.45	23.7716
405.59	25.0270
405.72	3.2610
405.85	13.4192
405.98	23.9313
406.11	17.9138
406.25	1.6885
406.38	22.3868
406.51	19.6994
406.64	15.6795
406.77	11.3283
406.91	18.3173
407.04	20.1201
407.17	19.4079
407.30	8.1142
407.43	6.6343
407.57	13.5269
407.70	15.2384
407.83	17.3927
407.96	12.8286
408.09	22.3327
408.23	22.3717
408.36	6.5947
408.49	1.5801
408.62	21.3920
408.75	16.3958
408.89	11.5780
409.02	17.0581
409.15	16.6409
409.28	19.8907
409.41	7.8890
409.55	7.2321
409.68	23.3379
409.81	20.4463
409.94	10.2809
410.07	26.4606
410.20	25.8325
410.34	16.2077
410.47	14.3948
410.60	19.4960
410.73	15.4410
410.86	18.3111
411.00	18.5644
411.13	22.3580
411.26	14.9508
411.39	15.8330
411.52	12.7596
411.66	15.7921
411.79	14.1471
411.92	19.5382
412.05	19.6654
412.18	14.7900
412.31	9.2807
412.45	19.8839
412.58	18.2903
412.71	10.8147
412.84	19.0405
412.97	25.7140
413.11	15.6938
413.24	4.7213
413.37	14.9147
413.50	17.0192
413.63	9.4317
413.76	9.1119
413.90	21.1028
414.03	18.2461
414.16	15.1538
414.29	8.2595
414.42	13.6400
414.56	11.5950
414.69	11.4719
414.82	7.4746
414.95	15.5247
415.08	8.8262
415.21	18.8789
415.35	13.4148
415.48	8.7021
415.61	20.6186
415.74	26.7770
415.87	3.8712
416.00	10.8915
416.14	23.1260
416.27	13.7555
416.40	7.8510
416.53	19.9518
416.66	21.8675
416.79	13.0582
416.93	12.5863
417.06	14.2195
417.19	15.8636
417.32	17.6525
417.45	13.2195
417.58	15.1222
417.72	16.3614
417.85	11.3360
417.98	7.7369
418.11	14.4982
418.24	11.4955
418.37	9.6061
418.51	5.3769
418.64	4.1998
418.77	10.3227
418.90	11.0926
419.03	7.8016
419.16	19.3633
419.29	26.9682
419.43	11.1191
419.56	9.9133
419.69	19.3333
419.82	16.6435
419.95	8.1332
420.08	9.9194
420.22	9.7739
420.35	6.9957
420.48	10.5826
420.61	7.6619
420.74	17.6717
420.87	22.3496
421.00	17.0453
421.14	7.8246
421.27	12.3369
421.40	11.5229
421.53	9.0287
421.66	12.2403
421.79	16.0364
421.93	18.9375
422.06	13.9462
422.19	10.2269
422.32	10.2229
422.45	14.6834
422.58	9.4243
422.71	8.2693
422.85	15.0058
422.98	17.5954
423.11	14.0202
423.24	16.8438
423.37	18.5626
423.50	15.8279
423.63	15.4190
423.77	13.4082
423.90	8.6017
424.03	9.7528
424.16	12.5472
424.29	10.8655
424.42	13.9597
424.55	14.5828
424.69	13.8388
424.82	13.6982
424.95	9.3767
425.08	8.9637
425.21	10.6242
425.34	9.5302
425.47	9.3965
425.60	13.3161
425.74	11.4025
425.87	10.4040
426.00	14.1777
426.13	12.2535
426.26	12.5658
426.39	8.7537
426.52	11.3342
426.66	16.7296
426.79	9.2301
426.92	4.9483
427.05	12.1445
427.18	12.2957
427.31	7.5414
427.44	11.8625
427.57	17.5662
427.71	16.0314
427.84	10.5169
427.97	7.5767
428.10	12.4307
428.23	18.7920
428.36	8.8395
428.49	6.7396
428.62	9.6804
428.76	13.0119
428.89	5.9160
429.02	7.7634
429.15	16.7368
429.28	16.4641
429.41	11.7800
429.54	7.4328
429.67	14.5934
429.81	14.1418
429.94	10.5439
430.07	4.9006
430.20	10.6629
430.33	11.7493
430.46	8.6083
430.59	12.9248
430.72	17.0499
430.85	16.3678
430.99	11.9409
431.12	9.5287
431.25	9.7422
431.38	12.6963
431.51	6.2479
431.64	5.4518
431.77	9.5504
431.90	10.3975
432.03	6.7787
432.17	9.6564
432.30	14.3237
432.43	13.2905
432.56	9.6636
432.69	7.2662
432.82	8.6380
432.95	7.5934
433.08	7.6101
433.21	7.7028
433.35	12.6102
433.48	11.6347
433.61	12.4857
433.74	10.3914
433.87	12.4078
434.00	11.2280
434.13	11.4318
434.26	9.5408
434.39	13.0662
434.53	12.8504
434.66	14.2689
434.79	10.9661
434.92	14.1731
435.05	13.4415
435.18	8.5222
435.31	6.2249
435.44	11.0936
435.57	12.5759
435.70	10.2362
435.84	7.6090
435.97	11.0058
436.10	12.9161
436.23	9.7325
436.36	11.4222
436.49	17.7467
436.62	13.1097
436.75	9.8251
436.88	10.5565
437.01	13.7327
437.14	14.1559
437.28	11.9725
437.41	10.3358
437.54	12.5246
437.67	14.6073
437.80	5.9650
437.93	7.5730
438.06	13.6072
438.19	13.5205
438.32	8.3872
438.45	12.7502
438.58	14.5150
438.72	13.3833
438.85	11.3806
438.98	9.7101
439.11	11.6286
439.24	12.7391
439.37	7.8005
439.50	8.2281
439.63	12.2415
439.76	14.5005
439.89	13.3555
440.02	12.1409
440.15	12.4037
440.29	14.2000
440.42	11.1903
440.55	6.6694
440.68	12.5209
440.81	13.4708
440.94	5.8671
441.07	7.2204
441.20	14.1611
441.33	12.1474
441.46	9.8745
441.59	13.9169
441.72	14.7607
441.85	12.8223
441.99	9.9706
442.12	9.8258
442.25	9.2359
442.38	11.4647
442.51	10.7243
442.64	11.8340
442.77	12.9174
442.90	14.1174
443.03	11.1485
443.16	9.0811
443.29	11.3631
443.42	9.9349
443.55	11.0855
443.68	11.4049
443.82	13.9266
443.95	11.5449
444.08	12.7055
444.21	10.7051
444.34	10.7120
444.47	10.5906
444.60	12.4955
444.73	9.1250
444.86	8.8450
444.99	9.8402
445.12	10.6310
445.25	8.4669
445.38	9.8417
445.51	12.0008
445.64	15.2974
445.78	9.1341
445.91	8.6473
446.04	13.3463
446.17	10.0286
446.30	4.7545
446.43	11.9681
446.56	15.6297
446.69	10.4867
446.82	10.4201
446.95	12.7747
447.08	13.0473
447.21	10.3083
447.34	11.2023
447.47	13.4814
447.60	10.7243
447.73	9.4493
447.86	10.8846
447.99	10.6732
448.13	11.2605
448.26	11.8489
448.39	10.1871
448.52	10.3928
448.65	12.0260
448.78	9.7872
448.91	12.4850
449.04	13.0837
449.17	12.5502
449.30	12.8782
449.43	11.4730
449.56	10.5261
449.69	13.9613
449.82	11.2029
449.95	8.9255
450.08	11.9761
450.21	12.2696
450.34	8.0783
450.47	10.7053
450.60	12.8270
450.73	13.2454
450.87	11.9841
451.00	8.1905
451.13	10.6139
451.26	10.1528
451.39	9.2981
451.52	10.1465
451.65	15.8591
451.78	15.7922
451.91	12.8091
452.04	10.3848
452.17	12.0965
452.30	12.1739
452.43	8.1595
452.56	12.2025
452.69	11.9438
452.82	10.4860
452.95	11.6419
453.08	11.4296
453.21	11.8257
453.34	13.8077
453.47	10.7302
453.60	9.2109
453.73	11.6778
453.86	9.8145
453.99	10.1502
454.12	11.5146
454.25	11.6293
454.38	10.4401
454.52	10.3331
454.65	11.1694
454.78	11.3314
454.91	11.1454
455.04	12.2679
455.17	9.7306
455.30	9.3760
455.43	12.3733
455.56	10.0614
455.69	8.4455
455.82	11.8023
455.95	11.4112
456.08	9.4871
456.21	12.3075
456.34	12.5484
456.47	12.2618
456.60	12.3884
456.73	10.9023
456.86	11.2011
456.99	12.7874
457.12	10.5789
457.25	9.4214
457.38	10.4057
457.51	9.6303
457.64	8.8375
457.77	11.0332
457.90	12.1300
458.03	11.6111
458.16	10.7930
458.29	11.5348
458.42	11.7930
458.55	12.3407
458.68	11.3020
458.81	8.4586
458.94	10.3734
459.07	12.0850
459.20	10.3030
459.33	9.9316
459.46	12.8791
459.59	12.2100
459.72	7.9316
459.85	8.4353
459.98	10.8843
460.11	12.9045
460.24	9.2706
460.37	10.7576
460.50	11.9758
460.63	12.1868
460.76	9.9567
460.89	11.2552
461.02	12.6435
461.15	12.6225
461.28	9.5957
461.41	11.4596
461.54	12.6049
461.67	10.5937
461.80	10.0248
461.93	11.7246
462.06	11.4784
462.19	11.7753
462.32	11.9031
462.45	12.1082
462.58	12.3027
462.71	12.2956
462.84	11.1330
462.97	11.4827
463.10	10.0251
463.23	10.2121
463.36	10.5836
463.49	9.8059
463.62	9.9303
463.75	11.3831
463.88	12.9649
464.01	9.1303
464.14	10.8206
464.27	12.1186
464.40	11.4697
464.53	10.0557
464.66	11.8591
464.79	11.9127
464.92	10.6499
465.05	10.7404
465.18	10.5119
465.31	11.7275
465.44	11.3902
465.57	8.9446
465.70	9.4701
465.83	11.3729
465.96	9.4742
466.09	8.5638
466.22	11.9289
466.35	12.1164
466.48	10.8150
466.61	11.2943
466.74	11.1962
466.87	10.3495
467.00	9.2157
467.13	10.0672
467.26	11.7935
467.39	12.5250
467.52	10.9664
467.65	12.0341
467.78	10.7775
467.91	9.5831
468.04	9.1828
468.17	11.3971
468.30	11.3862
468.43	10.6626
468.56	9.7173
468.69	11.0251
468.82	10.8621
468.95	11.0479
469.08	12.0543
469.21	11.5498
469.34	9.6774
469.47	10.0891
469.60	9.6966
469.73	8.7079
469.86	11.2203
469.99	12.6626
470.11	11.0415
470.24	10.7141
470.37	12.2336
470.50	11.9037
470.63	10.9276
470.76	9.9067
470.89	11.5628
471.02	11.9512
471.15	9.4911
471.28	9.5553
471.41	12.0185
471.54	12.0888
471.67	10.1565
471.80	11.3196
471.93	12.1035
472.06	12.5119
472.19	9.3667
472.32	9.5823
472.45	10.3294
472.58	9.8941
472.71	9.2785
472.84	11.2823
472.97	10.7304
473.10	11.6721
473.23	10.9812
473.36	10.2339
473.49	9.8917
473.62	10.4141
473.74	9.8803
473.87	11.2210
474.00	11.0238
474.13	10.2063
474.26	11.0747
474.39	10.6925
474.52	9.8466
474.65	11.5145
474.78	12.3137
474.91	10.2851
475.04	10.2236
475.17	10.7618
475.30	8.9921
475.43	9.0440
475.56	10.5778
475.69	11.2095
475.82	10.2222
475.95	11.1207
476.08	10.7548
476.21	10.6345
476.34	8.8656
476.46	9.8965
476.59	9.9196
476.72	10.9712
476.85	10.2084
476.98	10.8829
477.11	11.2963
477.24	10.9371
477.37	9.3727
477.50	10.4366
477.63	11.1807
477.76	10.4622
477.89	10.0752
478.02	10.8908
478.15	10.6333
478.28	10.5100
478.41	9.8898
478.54	10.4438
478.66	10.6182
478.79	10.7920
478.92	10.0910
479.05	10.7478
479.18	10.5200
479.31	10.3838
479.44	10.3978
479.57	10.4768
479.70	10.9078
479.83	11.4755
479.96	10.3290
480.09	9.8112
480.22	10.2857
480.35	10.0101
480.48	9.9835
480.60	10.6302
480.73	11.2934
480.86	11.3539
480.99	11.1417
481.12	10.0002
481.25	10.7848
481.38	10.7937
481.51	10.2577
481.64	10.3805
481.77	11.1850
481.90	11.0416
482.03	10.3593
482.16	10.7165
482.29	10.5777
482.41	11.0591
482.54	10.9266
482.67	11.0451
482.80	11.7334
482.93	11.1365
483.06	10.3960
483.19	10.6954
483.32	11.3269
483.45	10.2487
483.58	10.4926
483.71	10.5150
483.84	10.1678
483.97	10.0100
484.09	10.3437
484.22	10.9614
484.35	11.2143
484.48	11.1174
484.61	10.9297
484.74	11.2556
484.87	10.6201
485.00	10.9068
485.13	10.9304
485.26	11.2254
485.39	10.3391
485.52	10.4345
485.64	9.7610
485.77	10.3274
485.90	9.9304
486.03	10.7691
486.16	11.0006
486.29	11.1471
486.42	10.8547
486.55	10.7425
486.68	10.4814
486.81	10.7621
486.94	10.6494
487.06	10.3601
487.19	10.7754
487.32	10.8810
487.45	10.5691
487.58	11.1876
487.71	10.9676
487.84	10.2386
487.97	10.2392
488.10	10.6115
488.23	10.0468
488.35	10.5711
488.48	11.2390
488.61	11.4288
488.74	11.2082
488.87	10.8498
489.00	10.7479
489.13	10.9187
489.26	10.6506
489.39	10.5083
489.52	11.1047
489.64	10.9645
489.77	10.9283
489.90	11.0060
490.03	11.1958
490.16	11.2938
490.29	11.2043
490.42	11.2785
490.55	11.3562
490.68	11.8214
490.81	11.2484
490.93	11.4730
491.06	11.2851
491.19	10.7852
491.32	10.6889
491.45	11.2175
491.58	11.3672
491.71	11.7592
491.84	11.7292
491.97	11.2529
492.09	11.3960
492.22	10.9153
492.35	10.7035
492.48	11.3549
492.61	11.2007
492.74	10.8659
492.87	11.3760
493.00	11.1230
493.12	10.6866
493.25	11.0470
493.38	11.6073
493.51	11.4088
493.64	11.4271
493.77	11.7924
493.90	11.3604
494.03	10.6736
494.16	11.1232
494.28	11.7294
494.41	10.8708
494.54	10.7978
494.67	11.5532
494.80	11.0577
494.93	10.4534
495.06	11.2108
495.19	11.7453
495.31	11.5429
495.44	11.3046
495.57	11.4999
495.70	11.9602
495.83	12.0447
495.96	11.5254
496.09	11.4844
496.22	12.0023
496.34	11.6973
496.47	11.2555
496.60	11.3198
496.73	11.9640
496.86	11.3266
496.99	11.5808
497.12	11.6492
497.24	11.7448
497.37	11.7367
497.50	12.0948
497.63	11.1908
497.76	11.0426
497.89	12.0323
498.02	11.9684
498.15	11.4738
498.27	11.7022
498.40	11.9969
498.53	11.0477
498.66	11.2824
498.79	11.4250
498.92	11.8140
499.05	11.9600
499.17	11.6205
499.30	11.1465
499.43	11.7999
499.56	11.5170
499.69	11.4413
499.82	12.2003
499.95	12.4527
500.07	11.9669
500.20	11.3875
500.33	11.6342
500.46	11.7260
500.59	11.5381
500.72	11.3469
500.85	11.8993
500.97	12.0692
501.10	11.8170
501.23	11.4227
501.36	11.6306
501.49	11.9532
501.62	11.1870
501.75	11.5633
501.87	11.8288
502.00	11.5543
502.13	11.5780
502.26	11.9182
502.39	11.8180
502.52	12.1090
502.64	12.0132
502.77	11.8189
502.90	12.0494
503.03	11.9670
503.16	11.5172
503.29	11.8563
503.42	12.0997
503.54	11.9782
503.67	11.4292
503.80	12.1554
503.93	12.3239
504.06	11.8320
504.19	11.8067
504.31	12.0874
504.44	11.5781
504.57	11.7817
504.70	12.0318
504.83	12.1955
504.96	12.4485
505.08	12.1057
505.21	11.7483
505.34	12.0535
505.47	11.8976
505.60	11.8815
505.73	11.6925
505.85	11.9993
505.98	12.2200
506.11	12.4538
506.24	12.3294
506.37	12.7297
506.50	12.6608
506.62	12.4907
506.75	12.0120
506.88	12.1934
507.01	12.4801
507.14	12.4146
507.27	12.3822
507.39	12.6504
507.52	12.2645
507.65	12.6588
507.78	12.3844
507.91	11.9731
508.04	11.9671
508.16	12.2702
508.29	12.1884
508.42	12.5852
508.55	12.3623
508.68	12.6073
508.81	12.8010
508.93	12.4398
509.06	12.2185
509.19	12.6807
509.32	12.4015
509.45	12.3372
509.57	12.3320
509.70	12.5341
509.83	12.5368
509.96	12.5693
510.09	12.5126
510.22	12.8109
510.34	12.1454
510.47	12.2682
510.60	12.3068
510.73	12.3781
510.86	12.4813
510.98	12.8481
511.11	12.6916
511.24	12.9277
511.37	12.7822
511.50	12.5342
511.63	12.7334
511.75	12.7097
511.88	12.5023
512.01	12.3143
512.14	12.3330
512.27	12.2516
512.39	12.3286
512.52	12.5784
512.65	12.7967
512.78	12.7619
512.91	12.6346
513.03	12.6216
513.16	12.5147
513.29	12.6409
513.42	12.3963
513.55	12.8275
513.67	13.0046
513.80	12.9334
513.93	12.6733
514.06	12.9402
514.19	12.5280
514.31	12.6744
514.44	12.6896
514.57	12.4815
514.70	12.7858
514.83	13.0781
514.95	12.7242
515.08	12.6823
515.21	13.0190
515.34	12.9745
515.47	12.9052
515.59	13.0830
515.72	12.9504
515.85	13.1613
515.98	13.0728
516.11	12.9435
516.23	13.0839
516.36	13.5159
516.49	13.1381
516.62	12.7804
516.75	13.2808
516.87	13.1021
517.00	12.5698
517.13	12.7145
517.26	13.5036
517.39	13.1220
517.51	12.7200
517.64	13.1666
517.77	13.1272
517.90	12.6568
518.02	13.0641
518.15	13.4433
518.28	13.1503
518.41	13.1576
518.54	13.2804
518.66	13.0795
518.79	13.2755
518.92	13.3589
519.05	13.1933
519.18	13.2443
519.30	13.2605
519.43	13.2072
519.56	12.9034
519.69	13.2238
519.81	13.3870
519.94	13.3849
520.07	13.2766
520.20	13.4159
520.33	13.5033
520.45	13.2270
520.58	12.9667
520.71	13.0620
520.84	13.4906
520.96	13.5572
521.09	13.3695
521.22	13.4112
521.35	13.6393
521.48	13.6684
521.60	13.4146
521.73	13.2873
521.86	13.5479
521.99	13.4912
522.11	13.2120
522.24	13.2810
522.37	13.2794
522.50	13.4803
522.62	13.3349
522.75	13.5983
522.88	13.5912
523.01	13.8030
523.14	13.2048
523.26	13.5668
523.39	13.1469
523.52	13.1653
523.65	13.4506
523.77	13.8734
523.90	13.5432
524.03	13.8911
524.16	13.9616
524.28	13.8002
524.41	13.9358
524.54	14.0762
524.67	13.9088
524.79	13.5790
524.92	13.8634
525.05	13.6093
525.18	13.7379
525.31	13.2196
525.43	13.7844
525.56	14.0536
525.69	13.8785
525.82	13.4966
525.94	14.3049
526.07	14.2037
526.20	13.3422
526.33	13.3832
526.45	13.6958
526.58	13.6820
526.71	13.5853
526.84	14.1584
526.96	14.3473
527.09	14.3340
527.22	14.5217
527.35	14.1730
527.47	14.2452
527.60	14.2003
527.73	14.0216
527.86	13.6752
527.98	14.1315
528.11	13.7753
528.24	14.0790
528.37	14.1425
528.49	13.9548
528.62	14.1343
528.75	14.2801
528.88	13.9203
529.00	14.1348
529.13	14.5924
529.26	13.9662
529.39	13.6931
529.51	14.1864
529.64	14.0793
529.77	13.8384
529.90	14.2140
530.02	14.6905
530.15	14.3986
530.28	14.3045
530.40	14.2383
530.53	14.4150
530.66	14.2107
530.79	14.2720
530.91	14.3189
531.04	14.4798
531.17	14.4027
531.30	14.4706
531.42	14.0926
531.55	14.2978
531.68	14.3231
531.81	14.2280
531.93	14.3650
532.06	14.6906
532.19	14.4573
532.31	14.2988
532.44	14.5331
532.57	14.4652
532.70	14.3603
532.82	14.2255
532.95	14.3602
533.08	14.4082
533.21	14.5372
533.33	14.7989
533.46	14.5785
533.59	14.6533
533.71	14.6165
533.84	14.4949
533.97	14.4844
534.10	14.8996
534.22	14.7853
534.35	14.4867
534.48	14.6952
534.61	14.7905
534.73	14.7124
534.86	14.5757
534.99	14.7600
535.11	14.5921
535.24	14.5926
535.37	14.9129
535.50	14.8885
535.62	14.8471
535.75	14.9184
535.88	14.7794
536.00	14.5850
536.13	14.8950
536.26	15.1400
536.39	14.8428
536.51	14.9035
536.64	15.0263
536.77	15.0213
536.89	14.8435
537.02	15.0625
537.15	14.9642
537.28	15.0589
537.40	14.9133
537.53	14.8969
537.66	15.0921
537.78	15.2827
537.91	15.1120
538.04	15.4488
538.17	15.3435
538.29	14.9713
538.42	14.8325
538.55	15.0847
538.67	14.8830
538.80	15.1280
538.93	15.0927
539.05	14.9980
539.18	14.7715
539.31	15.1622
539.44	15.0621
539.56	15.2938
539.69	15.6344
539.82	15.8262
539.94	15.1693
540.07	15.3199
540.20	15.3953
540.32	15.2234
540.45	14.7860
540.58	15.3618
540.71	15.4375
540.83	15.4571
540.96	15.1556
541.09	15.2017
541.21	15.3332
541.34	15.4145
541.47	15.2444
541.59	15.1201
541.72	15.4246
541.85	15.4762
541.98	15.4216
542.10	15.0534
542.23	15.5317
542.36	15.5967
542.48	15.4131
542.61	15.2766
542.74	15.7401
542.86	15.7294
542.99	15.5259
543.12	15.5541
543.24	15.4758
543.37	15.5175
543.50	15.5309
543.62	15.7711
543.75	15.5855
543.88	15.5774
544.01	15.5000
544.13	15.6295
544.26	15.6506
544.39	15.8130
544.51	15.8351
544.64	16.0504
544.77	15.9540
544.89	16.0727
545.02	15.7146
545.15	15.6987
545.27	15.5959
545.40	15.4491
545.53	15.5500
545.65	15.9475
545.78	16.0582
545.91	15.9492
546.03	16.1729
546.16	16.0222
546.29	15.9496
546.41	16.1754
546.54	16.1905
546.67	15.8497
546.79	16.0134
546.92	15.9576
547.05	15.8663
547.17	15.8873
547.30	16.2826
547.43	15.9551
547.56	16.1236
547.68	15.9306
547.81	16.0912
547.94	16.2174
548.06	16.1030
548.19	16.0612
548.32	16.3148
548.44	16.2701
548.57	15.9533
548.70	16.1934
548.82	16.3266
548.95	16.4172
549.08	16.1743
549.20	16.3813
549.33	16.5204
549.45	16.5662
549.58	16.2020
549.71	16.7149
549.83	16.6545
549.96	16.5532
550.09	16.2666
550.21	16.4515
550.34	16.2412
550.47	16.5713
550.59	16.5088
550.72	16.2925
550.85	16.5049
550.97	16.6825
551.10	16.1701
551.23	16.2154
551.35	16.7136
551.48	16.7389
551.61	16.4236
551.73	16.5496
551.86	16.7816
551.99	16.5049
552.11	16.2493
552.24	16.5971
552.37	16.7855
552.49	16.4388
552.62	16.6008
552.75	16.8332
552.87	16.6171
553.00	16.6162
553.12	16.7047
553.25	16.4765
553.38	16.3847
553.50	16.7481
553.63	16.6618
553.76	16.8106
553.88	17.1447
554.01	17.1233
554.14	16.6525
554.26	16.7974
554.39	16.7756
554.52	16.7905
554.64	16.8086
554.77	16.9759
554.89	16.8817
555.02	16.9528
555.15	16.8992
555.27	16.7004
555.40	16.8638
555.53	17.1759
555.65	17.0230
555.78	16.7212
555.91	17.2331
556.03	17.3104
556.16	16.8924
556.29	16.8433
556.41	17.3147
556.54	17.2630
556.66	16.8526
556.79	17.0060
556.92	17.3845
557.04	17.2374
557.17	17.1014
557.30	17.4056
557.42	17.3457
557.55	17.2150
557.67	17.1838
557.80	17.1157
557.93	17.3512
558.05	17.4936
558.18	17.3528
558.31	17.3330
558.43	17.3781
558.56	17.3610
558.68	17.4012
558.81	17.1181
558.94	17.2671
559.06	17.3337
559.19	17.2719
559.32	17.1724
559.44	17.6080
559.57	17.6113
559.69	17.5192
559.82	17.3918
559.95	17.6966
560.07	17.5894
560.20	17.3773
560.33	17.5909
560.45	17.4549
560.58	17.3329
560.70	17.5005
560.83	17.6071
560.96	17.2937
561.08	17.6276
561.21	17.7640
561.33	17.5286
561.46	17.6169
561.59	17.7696
561.71	17.7727
561.84	17.4243
561.97	17.6999
562.09	17.8280
562.22	17.7146
562.34	17.5618
562.47	17.8450
562.60	17.8149
562.72	17.7110
562.85	17.9416
562.97	18.1144
563.10	18.0657
563.23	17.9467
563.35	17.9118
563.48	17.7272
563.60	17.7944
563.73	17.8391
563.86	17.9233
563.98	18.0250
564.11	18.0141
564.23	17.9670
564.36	17.7622
564.49	17.8715
564.61	18.0632
564.74	18.1914
564.86	18.1487
564.99	18.2728
565.12	18.3152
565.24	18.1693
565.37	18.1499
565.49	18.1862
565.62	18.5311
565.75	18.0710
565.87	17.9701
566.00	18.2811
566.12	18.1739
566.25	17.9403
566.38	18.2609
566.50	18.3664
566.63	18.2817
566.75	18.4306
566.88	18.3610
567.01	18.4544
567.13	18.5627
567.26	18.3581
567.38	18.4555
567.51	18.4501
567.64	18.3194
567.76	18.3048
567.89	18.5720
568.01	18.3272
568.14	18.3589
568.26	18.5875
568.39	18.4342
568.52	18.3783
568.64	18.5671
568.77	18.6964
568.89	18.6817
569.02	18.8428
569.15	18.7241
569.27	18.5543
569.40	18.5193
569.52	18.5269
569.65	18.6350
569.77	18.9502
569.90	18.8433
570.03	18.8860
570.15	19.0107
570.28	19.0496
570.40	18.7380
570.53	18.8841
570.66	18.8980
570.78	18.9145
570.91	18.6716
571.03	18.8010
571.16	18.9466
571.28	18.9329
571.41	18.9131
571.54	18.9630
571.66	18.9729
571.79	19.0837
571.91	19.0128
572.04	18.8526
572.16	19.0377
572.29	19.0498
572.42	19.0683
572.54	19.0910
572.67	19.2433
572.79	19.1596
572.92	19.0943
573.04	19.0922
573.17	19.3482
573.29	19.2371
573.42	19.1722
573.55	19.2958
573.67	19.3943
573.80	19.2951
573.92	19.2584
574.05	19.3360
574.17	19.4023
574.30	19.3302
574.43	19.2716
574.55	19.4706
574.68	19.4823
574.80	19.5176
574.93	19.4986
575.05	19.5753
575.18	19.4520
575.30	19.3775
575.43	19.3567
575.56	19.4467
575.68	19.6311
575.81	19.6880
575.93	19.7587
576.06	19.9027
576.18	20.0347
576.31	19.5960
576.43	19.5784
576.56	19.7505
576.69	19.7623
576.81	19.6326
576.94	19.8504
577.06	20.0210
577.19	19.9500
577.31	19.7191
577.44	19.7228
577.56	19.6661
577.69	19.7037
577.82	19.9601
577.94	19.9836
578.07	19.7627
578.19	20.0637
578.32	20.1332
578.44	19.7894
578.57	19.9550
578.69	20.1465
578.82	19.9931
578.94	19.9379
579.07	20.1324
579.19	20.0436
579.32	20.0843
579.45	20.2367
579.57	20.1671
579.70	20.1993
579.82	20.0736
579.95	20.1999
580.07	20.1579
580.20	20.1882
580.32	20.1399
580.45	20.3973
580.57	20.2907
580.70	20.2341
580.82	20.5057
580.95	20.3961
581.08	20.4216
581.20	20.4439
581.33	20.4599
581.45	20.1612
581.58	20.6069
581.70	20.5277
581.83	20.4432
581.95	20.5967
582.08	20.7381
582.20	20.5369
582.33	20.6906
582.45	20.7147
582.58	20.7085
582.70	20.7109
582.83	20.5636
582.95	20.4044
583.08	20.4585
583.21	20.5298
583.33	20.7410
583.46	20.7737
583.58	20.8482
583.71	20.9744
583.83	20.9049
583.96	20.7352
584.08	20.8158
584.21	20.9786
584.33	21.1689
584.46	21.0303
584.58	20.9422
584.71	21.1100
584.83	21.2675
584.96	20.8805
585.08	20.9192
585.21	21.0543
585.33	20.8903
585.46	20.8447
585.58	21.1090
585.71	21.0992
585.83	21.1159
585.96	21.1308
586.08	20.8442
586.21	20.9761
586.33	21.0542
586.46	21.1766
586.59	21.1273
586.71	21.1815
586.84	21.2608
586.96	21.4103
587.09	21.0446
587.21	21.2544
587.34	21.5208
587.46	21.2296
587.59	21.1864
587.71	21.6321
587.84	21.6709
587.96	21.4237
588.09	21.5194
588.21	21.4795
588.34	21.4392
588.46	21.3585
588.59	21.5379
588.71	21.6452
588.84	21.4400
588.96	21.4270
589.09	21.6479
589.21	21.7145
589.34	21.6603
589.46	21.8145
589.59	21.9772
589.71	21.9590
589.84	21.9015
589.96	21.8523
590.09	22.0279
590.21	21.8677
590.34	21.9098
590.46	21.9685
590.59	21.9040
590.71	22.0952
590.84	22.0433
590.96	21.8714
591.09	21.9113
591.21	22.1704
591.34	21.7846
591.46	21.7539
591.59	21.7801
591.71	21.8955
591.83	21.8939
591.96	22.0468
592.08	22.1647
592.21	22.3052
592.33	22.2649
592.46	22.1975
592.58	22.1792
592.71	22.2132
592.83	21.9428
592.96	21.9987
593.08	22.1730
593.21	22.3293
593.33	22.4036
593.46	22.5312
593.58	22.3834
593.71	22.4395
593.83	22.1674
593.96	22.1544
594.08	22.2980
594.21	22.3037
594.33	22.2527
594.46	22.7151
594.58	22.6982
594.71	22.7294
594.83	22.3644
594.96	22.3038
595.08	22.3353
595.20	22.5391
595.33	22.2162
595.45	22.6444
595.58	22.7978
595.70	22.6455
595.83	22.3840
595.95	22.7693
596.08	22.9073
596.20	22.6910
596.33	22.7579
596.45	22.9626
596.58	22.8744
596.70	22.7813
596.83	22.8186
596.95	22.9603
597.08	22.9386
597.20	22.9455
597.32	23.0220
597.45	23.0725
597.57	22.9979
597.70	22.9588
597.82	23.0354
597.95	23.0172
598.07	23.0951
598.20	23.2131
598.32	23.1711
598.45	23.0176
598.57	23.1602
598.70	23.2736
598.82	22.9733
598.94	22.9958
599.07	23.2024
599.19	23.4338
599.32	23.1886
599.44	23.2924
599.57	23.4500
599.69	23.5889
599.82	23.1062
599.94	23.2612
600.07	23.6103
600.19	23.6312
600.31	23.2411
600.44	23.2637
600.56	23.4904
600.69	23.3557
600.81	23.3626
600.94	23.5745
601.06	23.6276
601.19	23.6929
601.31	23.4771
601.44	23.3638
601.56	23.4773
601.68	23.6375
601.81	23.3217
601.93	23.6811
602.06	23.9020
602.18	23.7429
602.31	23.6639
602.43	23.8565
602.56	23.7011
602.68	23.4864
602.80	23.7357
602.93	23.7759
603.05	23.8018
603.18	23.9378
603.30	24.0978
603.43	23.9809
603.55	24.0078
603.68	23.9455
603.80	23.8890
603.92	23.8922
604.05	24.0729
604.17	24.1597
604.30	24.1956
604.42	24.0794
604.55	24.1840
604.67	24.1230
604.79	24.1308
604.92	24.1487
605.04	24.2623
605.17	24.2761
605.29	24.0831
605.42	24.0965
605.54	24.1027
605.66	24.1367
605.79	24.1082
605.91	24.3923
606.04	24.3014
606.16	24.3962
606.29	24.4159
606.41	24.5171
606.53	24.4272
606.66	24.5500
606.78	24.5075
606.91	24.5013
607.03	24.5197
607.16	24.4875
607.28	24.4371
607.40	24.5503
607.53	24.7210
607.65	24.6851
607.78	24.5164
607.90	24.6983
608.03	24.6544
608.15	24.7050
608.27	24.6958
608.40	25.0495
608.52	24.8926
608.65	25.0093
608.77	24.7659
608.89	24.5316
609.02	24.5603
609.14	24.5904
609.27	24.6022
609.39	24.9761
609.52	25.3042
609.64	25.3394
609.76	25.3503
609.89	25.1870
610.01	25.0326
610.14	25.1478
610.26	24.9386
610.38	25.1457
610.51	25.4622
610.63	25.4241
610.76	25.2695
610.88	25.2753
611.01	25.1724
611.13	25.1568
611.25	25.2132
611.38	25.2420
611.50	25.4084
611.63	25.4964
611.75	25.3889
611.87	25.1828
612.00	25.2780
612.12	25.5703
612.25	25.5220
612.37	25.5013
612.49	25.5732
612.62	25.5692
612.74	25.4175
612.87	25.6654
612.99	25.6670
613.11	25.7407
613.24	25.7388
613.36	25.7089
613.49	25.6224
613.61	25.5291
613.73	25.7827
613.86	25.8262
613.98	25.7821
614.11	25.6676
614.23	25.7518
614.35	25.6222
614.48	25.6690
614.60	25.6935
614.72	25.7588
614.85	25.8361
614.97	25.9011
615.10	25.8271
615.22	25.7467
615.34	25.9212
615.47	25.9433
615.59	25.8809
615.72	26.1386
615.84	26.0492
615.96	25.9865
616.09	26.1562
616.21	26.2163
616.34	26.0034
616.46	26.2985
616.58	26.2531
616.71	26.1415
616.83	26.0845
616.95	26.1723
617.08	26.3290
617.20	26.4903
617.33	26.4127
617.45	26.4994
617.57	26.6216
617.70	26.5360
617.82	26.3246
617.95	26.4155
618.07	26.3875
618.19	26.2359
618.32	26.2959
618.44	26.5672
618.56	26.7399
618.69	26.6584
618.81	26.7615
618.94	26.6703
619.06	26.6557
619.18	26.6640
619.31	26.7236
619.43	26.6128
619.55	26.9289
619.68	26.9791
619.80	26.5788
619.92	26.6146
620.05	26.9109
620.17	26.7828
620.30	26.5967
620.42	26.9926
620.54	27.1461
620.67	26.9817
620.79	26.7040
620.91	26.8351
621.04	26.8346
621.16	26.9323
621.29	26.9362
621.41	27.1835
621.53	27.3190
621.66	27.2060
621.78	26.8619
621.90	26.9950
622.03	27.0874
622.15	26.9812
622.27	27.1693
622.40	27.4124
622.52	27.5263
622.64	27.4915
622.77	27.4151
622.89	27.3922
623.02	27.4812
623.14	27.3465
623.26	27.2190
623.39	27.4183
623.51	27.6057
623.63	27.4252
623.76	27.3858
623.88	27.6074
624.00	27.5867
624.13	27.5158
624.25	27.5495
624.37	27.4663
624.50	27.5743
624.62	27.6850
624.75	27.4537
624.87	27.6878
624.99	27.9165
625.12	27.5038
625.24	27.3652
625.36	27.5786
625.49	27.5757
625.61	27.4135
625.73	27.7252
625.86	27.8544
625.98	27.9519
626.10	27.8304
626.23	27.9722
626.35	28.0220
626.47	27.9857
626.60	27.9390
626.72	27.9898
626.84	28.1633
626.97	28.2877
627.09	28.0728
627.21	27.8889
627.34	28.1981
627.46	28.1044
627.58	27.8451
627.71	28.2964
627.83	28.3563
627.95	27.8580
628.08	27.9237
628.20	28.2098
628.32	28.1122
628.45	28.2378
628.57	28.4877
628.69	28.2873
628.82	28.2756
628.94	28.3209
629.06	28.2551
629.19	28.5249
629.31	28.6774
629.43	28.6063
629.56	28.3614
629.68	28.5997
629.80	28.5685
629.93	28.6740
630.05	28.6939
630.17	29.0119
630.30	28.8933
630.42	28.9311
630.54	29.0709
630.67	28.7807
630.79	28.7457
630.91	28.8991
631.04	28.7926
631.16	28.7637
631.28	29.2528
631.41	29.1218
631.53	28.9805
631.65	28.9977
631.78	28.9129
631.90	29.0759
632.02	28.9819
632.14	29.0646
632.27	29.2332
632.39	29.0289
632.51	28.8277
632.64	29.2187
632.76	29.2965
632.88	29.3401
633.01	29.6648
633.13	29.2716
633.25	29.3563
633.38	29.4522
633.50	29.4030
633.62	29.4529
633.75	29.6369
633.87	29.4886
633.99	29.4845
634.11	29.4088
634.24	29.3760
634.36	29.5982
634.48	29.4659
634.61	29.5394
634.73	29.7323
634.85	29.8417
634.98	30.0078
635.10	29.8425
635.22	29.8347
635.35	29.9658
635.47	29.8588
635.59	29.6911
635.71	30.0719
635.84	29.9146
635.96	29.8381
636.08	29.8222
636.21	29.8373
636.33	29.9451
636.45	30.2816
636.58	29.9983
636.70	30.1249
636.82	30.4623
636.94	30.2715
637.07	29.9887
637.19	30.1615
637.31	30.3477
637.44	30.1243
637.56	30.1890
637.68	30.2876
637.81	30.6329
637.93	30.3654
638.05	30.0314
638.17	30.1891
638.30	30.3236
638.42	30.0581
638.54	30.1649
638.67	30.5915
638.79	30.5732
638.91	30.5986
639.03	30.6656
639.16	30.7560
639.28	30.8517
639.40	30.6896
639.53	30.6982
639.65	30.7858
639.77	30.7097
639.89	30.5858
640.02	30.9068
640.14	30.7071
640.26	30.7685
640.39	30.8365
640.51	30.7680
640.63	30.6359
640.75	30.9127
640.88	30.9174
641.00	30.6148
641.12	30.9224
641.24	31.1911
641.37	30.7805
641.49	30.8587
641.61	31.2388
641.74	31.2779
641.86	31.0460
641.98	31.3805
642.10	31.3882
642.23	31.3702
642.35	31.2062
642.47	31.1318
642.60	31.3401
642.72	31.2382
642.84	31.2362
642.96	31.2890
643.09	31.4610
643.21	31.4255
643.33	31.3223
643.45	31.1664
643.58	31.3187
643.70	31.3978
643.82	31.3657
643.94	31.5068
644.07	31.7279
644.19	31.5553
644.31	31.5223
644.44	31.5512
644.56	31.6286
644.68	31.7230
644.80	31.9150
644.93	31.8958
645.05	31.8927
645.17	31.9005
645.29	31.9217
645.42	31.7283
645.54	31.7537
645.66	31.8756
645.78	31.8264
645.91	31.5931
646.03	31.8602
646.15	31.9762
646.27	31.8641
646.40	31.7782
646.52	32.0784
646.64	32.1841
646.76	31.9994
646.89	31.9766
647.01	32.0109
647.13	32.1117
647.25	32.0197
647.38	32.0061
647.50	32.2690
647.62	32.5789
647.74	32.3384
647.87	32.1275
647.99	32.3782
648.11	32.4683
648.23	32.1915
648.36	32.3244
648.48	32.6192
648.60	32.7605
648.72	32.3733
648.85	32.5565
648.97	32.7366
649.09	32.6881
649.21	32.5716
649.34	32.8009
649.46	32.8158
649.58	32.8371
649.70	32.7125
649.83	32.6490
649.95	32.5691
650.07	32.6612
650.19	32.4650
650.32	32.4996
650.44	32.6343
650.56	32.7900
650.68	32.8180
650.81	32.7315
650.93	32.9237
651.05	32.8699
651.17	32.8805
651.29	32.8259
651.42	33.1836
651.54	33.3614
651.66	33.4088
651.78	33.0501
651.91	33.1469
652.03	33.2469
652.15	33.0678
652.27	33.1792
652.40	33.6010
652.52	33.7336
652.64	33.2535
652.76	33.2540
652.88	33.3474
653.01	33.6117
653.13	33.4399
653.25	33.6486
653.37	33.7008
653.50	33.8414
653.62	33.4312
653.74	33.4100
653.86	33.7247
653.98	33.8466
654.11	33.7736
654.23	33.6891
654.35	33.8969
654.47	33.8984
654.60	34.0265
654.72	33.7728
654.84	34.0965
654.96	34.0602
655.08	34.0321
655.21	33.7581
655.33	33.9390
655.45	34.0623
655.57	34.0338
655.70	33.7982
655.82	33.9445
655.94	34.2499
656.06	34.0610
656.18	34.0419
656.31	34.3746
656.43	34.4588
656.55	34.2457
656.67	34.1975
656.79	34.3960
656.92	34.4982
657.04	34.1746
657.16	34.2036
657.28	34.3592
657.40	34.4422
657.53	34.2088
657.65	34.3411
657.77	34.4680
657.89	34.7236
658.01	34.4724
658.14	34.5517
658.26	34.9055
658.38	34.9214
658.50	34.3719
658.62	34.5196
658.75	34.5903
658.87	34.7683
658.99	34.6867
659.11	34.8798
659.23	34.9711
659.36	35.0366
659.48	34.8387
659.60	34.9468
659.72	35.2217
659.84	35.2149
659.97	34.8177
660.09	34.5996
660.21	34.7123
660.33	34.8920
660.45	34.8326
660.58	35.0734
660.70	35.4072
660.82	35.2166
660.94	34.8900
661.06	34.9288
661.19	35.1741
661.31	35.1289
661.43	35.1283
661.55	35.1932
661.67	35.4445
661.80	35.4437
661.92	35.4562
662.04	35.4144
662.16	35.7094
662.28	35.6029
662.40	35.4660
662.53	35.5502
662.65	35.5760
662.77	35.5727
662.89	35.7110
663.01	35.8085
663.14	35.6923
663.26	35.9966
663.38	35.9244
663.50	35.6739
663.62	35.7982
663.74	35.9591
663.87	35.8189
663.99	35.5351
664.11	35.8362
664.23	35.9615
664.35	35.8611
664.48	35.9557
664.60	36.4704
664.72	36.4323
664.84	36.1576
664.96	36.2352
665.08	36.1431
665.21	36.2699
665.33	36.2576
665.45	36.1955
665.57	36.2015
665.69	36.4196
665.81	36.2724
665.94	36.1765
666.06	36.4457
666.18	36.6563
666.30	36.4605
666.42	36.2966
666.54	36.5356
666.67	36.3701
666.79	36.1904
666.91	36.4616
667.03	36.5576
667.15	36.5454
667.27	36.7918
667.40	36.5740
667.52	36.4914
667.64	36.7541
667.76	36.5871
667.88	36.3989
668.00	36.7533
668.13	36.8304
668.25	36.6980
668.37	36.6726
668.49	36.9654
668.61	37.0275
668.73	36.9450
668.85	36.9119
668.98	37.2413
669.10	37.1748
669.22	36.8961
669.34	37.0949
669.46	37.1174
669.58	36.9574
669.71	37.0887
669.83	37.3138
669.95	37.2232
670.07	37.2724
670.19	37.4881
670.31	37.4352
670.43	37.3242
670.56	37.3293
670.68	37.4534
670.80	37.1288
670.92	37.2003
671.04	37.4920
671.16	37.5711
671.28	37.3532
671.41	37.7343
671.53	37.9617
671.65	37.5426
671.77	37.3672
671.89	37.5982
672.01	37.7052
672.13	37.4363
672.26	37.9243
672.38	38.0099
672.50	37.9022
672.62	37.7165
672.74	37.8560
672.86	37.8005
672.98	37.9681
673.11	37.9173
673.23	38.0245
673.35	38.0214
673.47	38.2416
673.59	38.1757
673.71	37.9660
673.83	37.9500
673.96	38.1571
674.08	37.9253
674.20	37.9905
674.32	38.4085
674.44	38.4266
674.56	38.1658
674.68	38.1821
674.80	38.3443
674.93	38.3975
675.05	38.3322
675.17	38.3454
675.29	38.4775
675.41	38.4623
675.53	38.5358
675.65	38.4752
675.77	38.7100
675.90	38.9362
676.02	38.7142
676.14	38.4411
676.26	38.7211
676.38	38.6735
676.50	38.6095
676.62	38.9981
676.74	39.2165
676.87	39.0178
676.99	38.9663
677.11	38.7908
677.23	38.7317
677.35	38.9368
677.47	39.0415
677.59	39.0275
677.71	39.1376
677.83	39.0180
677.96	38.9505
678.08	39.1571
678.20	39.4000
678.32	39.5512
678.44	39.2741
678.56	39.2666
678.68	39.4091
678.80	39.3640
678.93	39.2320
679.05	39.4506
679.17	39.5125
679.29	39.4345
679.41	39.4938
679.53	39.5177
679.65	39.7714
679.77	39.7118
679.89	39.4842
680.01	39.7342
680.14	39.9373
680.26	39.8216
680.38	39.7165
680.50	39.8905
680.62	39.6782
680.74	39.6100
680.86	39.7388
680.98	39.6346
681.10	39.7786
681.22	39.9449
681.35	40.1231
681.47	39.7364
681.59	40.1283
681.71	40.2225
681.83	39.8766
681.95	39.5012
682.07	39.9300
682.19	39.9506
682.31	39.5529
682.43	39.8624
682.56	40.1210
682.68	40.0708
682.80	39.9928
682.92	40.3368
683.04	40.3823
683.16	40.2360
683.28	40.3419
683.40	40.3611
683.52	40.3827
683.64	40.3676
683.76	40.5551
683.89	40.3597
684.01	40.4618
684.13	40.4554
684.25	40.3368
684.37	40.4493
684.49	40.6010
684.61	40.6840
684.73	40.8637
684.85	40.6893
684.97	40.7824
685.09	41.0908
685.21	40.7041
685.34	40.6345
685.46	41.0222
685.58	40.6950
685.70	40.6663
685.82	41.1317
685.94	41.1041
686.06	41.0461
686.18	41.3058
686.30	41.0837
686.42	41.1924
686.54	40.9883
686.66	41.1062
686.79	40.8595
686.91	41.0208
687.03	41.1445
687.15	41.5439
687.27	41.3060
687.39	41.6275
687.51	41.6355
687.63	41.3816
687.75	40.9986
687.87	41.4030
687.99	41.3122
688.11	41.1188
688.23	41.1358
688.35	41.5111
688.48	41.3539
688.60	41.3463
688.72	41.5267
688.84	41.7066
688.96	41.7350
689.08	41.3109
689.20	41.3641
689.32	41.6524
689.44	41.7000
689.56	41.5824
689.68	42.0260
689.80	42.0892
689.92	41.8181
690.04	41.7012
690.16	41.7546
690.28	42.0487
690.41	42.0146
690.53	41.9392
690.65	41.8949
690.77	41.9194
690.89	41.7226
691.01	41.8761
691.13	42.0039
691.25	42.2550
691.37	42.5246
691.49	42.1437
691.61	42.0529
691.73	42.3358
691.85	42.4247
691.97	42.0834
692.09	42.3910
692.21	42.4543
692.33	42.5472
692.45	42.3800
692.57	42.3478
692.70	42.6630
692.82	42.7427
692.94	42.4488
693.06	42.5455
693.18	42.9054
693.30	42.6268
693.42	42.5927
693.54	42.7680
693.66	42.9542
693.78	42.8762
693.90	43.0595
694.02	43.2945
694.14	43.3133
694.26	43.0123
694.38	42.9053
694.50	43.0297
694.62	42.9905
694.74	42.9342
694.86	43.0376
694.98	43.0183
695.10	43.0493
695.22	43.0494
695.34	43.1466
695.46	43.1446
695.58	43.4102
695.71	43.3677
695.83	43.0203
695.95	43.1228
696.07	43.3174
696.19	43.3998
696.31	43.0756
696.43	43.3564
696.55	43.4096
696.67	43.3288
696.79	43.2907
696.91	43.2666
697.03	43.3570
697.15	43.4468
697.27	43.2481
697.39	43.2351
697.51	43.6333
697.63	43.3991
697.75	43.2608
697.87	43.6354
697.99	43.5817
698.11	43.5126
698.23	43.7415
698.35	43.7106
698.47	43.7367
698.59	43.5646
698.71	43.7710
698.83	43.8920
698.95	44.0523
699.07	43.9887
699.19	44.4268
699.31	44.2939
699.43	44.3600
699.55	44.3821
699.67	44.5015
699.79	44.3634
699.91	44.4072
700.03	44.3923
700.15	44.3170
700.27	44.3916
700.39	44.3426
700.51	44.3842
700.63	44.2333
700.75	44.4008
700.87	44.2006
700.99	44.3843
701.11	44.3690
701.24	44.2843
701.36	44.1255
701.48	44.4129
701.60	44.1078
701.72	44.2686
701.84	44.7037
701.96	44.7328
702.08	44.5013
702.20	44.8188
702.32	44.9012
702.44	44.9295
702.56	45.1162
702.68	44.9703
702.80	44.8592
702.92	44.8747
703.04	44.8070
703.16	44.9170
703.28	45.2097
703.40	45.2946
703.52	45.1662
703.64	45.1075
703.76	45.0167
703.88	45.0711
704.00	44.9896
704.12	45.0578
704.24	45.0384
704.36	45.1667
704.48	45.1151
704.60	45.3130
704.72	45.1338
704.84	45.1475
704.96	45.2231
705.07	45.3806
705.19	45.2708
705.31	45.6489
705.43	45.6767
705.55	45.5337
705.67	45.7242
705.79	45.9403
705.91	45.7250
706.03	45.7921
706.15	45.8729
706.27	45.6284
706.39	45.6581
706.51	45.7392
706.63	45.7347
706.75	45.4714
706.87	45.5462
706.99	45.6483
707.11	45.7312
707.23	45.8344
707.35	46.0095
707.47	45.9010
707.59	45.8714
707.71	45.8375
707.83	45.9520
707.95	45.6991
708.07	45.8005
708.19	46.0427
708.31	46.0760
708.43	45.8505
708.55	46.2390
708.67	46.1751
708.79	45.8546
708.91	45.7555
709.03	45.9862
709.15	45.9144
709.27	46.0499
709.39	46.0308
709.51	46.1136
709.63	46.2854
709.75	46.2360
709.87	46.2453
709.99	46.4856
710.11	46.8632
710.23	46.3969
710.35	46.5135
710.47	46.5251
710.58	46.2764
710.70	46.0733
710.82	46.3365
710.94	46.2654
711.06	46.3459
711.18	46.3010
711.30	46.1406
711.42	46.1357
711.54	46.5598
711.66	46.5054
711.78	46.4707
711.90	46.8782
712.02	47.3086
712.14	46.8840
712.26	46.7100
712.38	47.0853
712.50	46.9997
712.62	46.7621
712.74	46.6665
712.86	47.0041
712.98	47.0470
713.10	46.8047
713.22	46.7088
713.34	46.9609
713.45	46.9588
713.57	46.8756
713.69	46.9494
713.81	47.1023
713.93	47.5078
714.05	47.2467
714.17	47.0796
714.29	47.3795
714.41	47.2652
714.53	47.0103
714.65	47.4480
714.77	47.3246
714.89	47.2236
715.01	47.3531
715.13	47.4131
715.25	47.4121
715.37	47.6314
715.49	47.5969
715.61	47.4177
715.72	47.5238
715.84	47.5373
715.96	47.5129
716.08	47.4619
716.20	47.7666
716.32	47.7706
716.44	47.7290
716.56	47.6711
716.68	47.7536
716.80	47.8022
716.92	47.7280
717.04	47.7334
717.16	48.1173
717.28	48.0857
717.40	47.9940
717.52	48.0286
717.63	48.0160
717.75	47.9937
717.87	48.2713
717.99	48.1011
718.11	48.0100
718.23	47.9914
718.35	48.1949
718.47	48.0195
718.59	48.2142
718.71	48.1688
718.83	48.4206
718.95	48.2238
719.07	48.2945
719.19	48.2992
719.30	48.4949
719.42	48.3386
719.54	48.3198
719.66	48.5758
719.78	48.6545
719.90	48.7315
720.02	48.6573
720.14	48.6993
720.26	48.5597
720.38	48.8034
720.50	48.6370
720.62	48.9147
720.74	48.8666
720.85	48.5462
720.97	48.5708
721.09	48.6309
721.21	48.5048
721.33	48.6537
721.45	49.0178
721.57	49.1244
721.69	48.9637
721.81	48.8024
721.93	48.9621
722.05	49.1010
722.16	48.8604
722.28	48.9387
722.40	48.8927
722.52	49.0825
722.64	48.9462
722.76	48.8221
722.88	49.2040
723.00	49.4433
723.12	49.4300
723.24	49.1953
723.36	49.1881
723.47	49.1019
723.59	49.0698
723.71	48.9754
723.83	49.3342
723.95	49.3773
724.07	49.0321
724.19	49.2835
724.31	49.5618
724.43	49.6567
724.55	49.1805
724.66	49.7278
724.78	49.8342
724.90	49.4362
725.02	49.2544
725.14	50.1715
725.26	50.0190
725.38	49.6927
725.50	49.7342
725.62	49.9326
725.74	50.0827
725.85	50.3102
725.97	49.2297
726.09	49.5412
726.21	49.8368
726.33	49.6279
726.45	49.4742
726.57	50.7442
726.69	50.4605
726.81	50.0380
726.92	49.7925
727.04	49.8145
727.16	49.9071
727.28	50.0655
727.40	49.7572
727.52	49.6722
727.64	49.7068
727.76	49.8822
727.88	49.8609
727.99	50.1742
728.11	50.4362
728.23	50.5016
728.35	50.3372
728.47	50.2582
728.59	50.5502
728.71	50.5801
728.83	50.3593
728.94	50.1906
729.06	50.2869
729.18	50.1940
729.30	49.9672
729.42	49.9442
729.54	50.2747
729.66	50.2189
729.78	50.1524
729.90	50.6499
730.01	50.8653
730.13	50.8195
730.25	50.8128
730.37	50.9044
730.49	50.6902
730.61	50.6778
730.73	50.6636
730.84	50.7405
730.96	50.9152
731.08	51.0485
731.20	50.5507
731.32	50.6971
731.44	50.9077
731.56	50.5992
731.68	50.5431
731.79	51.2133
731.91	50.9897
732.03	50.9496
732.15	51.1542
732.27	50.9261
732.39	51.1087
732.51	51.4381
732.62	51.1561
732.74	51.1823
732.86	51.5485
732.98	51.2674
733.10	50.8105
733.22	51.2359
733.34	51.1204
733.45	51.0435
733.57	51.0800
733.69	51.3231
733.81	51.3102
733.93	51.3628
734.05	51.2940
734.17	51.3965
734.28	51.6958
734.40	51.6794
734.52	51.4048
734.64	51.4599
734.76	51.7074
734.88	51.4594
735.00	51.0003
735.11	51.4980
735.23	51.8342
735.35	51.3855
735.47	51.5224
735.59	52.0082
735.71	51.8682
735.83	51.6376
735.94	51.8093
736.06	51.6879
736.18	51.6299
736.30	51.9368
736.42	52.0054
736.54	51.5920
736.65	51.7916
736.77	51.9722
736.89	51.3100
737.01	51.6152
737.13	52.3429
737.25	52.2213
737.36	52.0362
737.48	52.6656
737.60	52.3100
737.72	51.8893
737.84	52.0154
737.96	51.8603
738.08	51.9049
738.19	51.9059
738.31	52.1967
738.43	52.0835
738.55	52.4351
738.67	52.2814
738.79	52.2436
738.90	52.3947
739.02	52.5787
739.14	52.3474
739.26	52.2528
739.38	52.5201
739.50	52.4476
739.61	52.4093
739.73	52.4861
739.85	52.3894
739.97	52.6007
740.09	52.5961
740.20	52.5040
740.32	52.8951
740.44	53.1879
740.56	52.9073
740.68	52.9800
740.80	52.9584
740.91	52.6677
741.03	52.8027
741.15	52.6728
741.27	52.6547
741.39	52.6220
741.51	52.7251
741.62	52.6844
741.74	52.9507
741.86	52.9610
741.98	53.1571
742.10	53.1194
742.21	53.2006
742.33	52.7731
742.45	52.8152
742.57	52.7449
742.69	52.8978
742.80	52.9042
742.92	53.3577
743.04	53.0715
743.16	53.4287
743.28	53.4350
743.40	53.4743
743.51	53.3817
743.63	53.6885
743.75	53.3960
743.87	53.2878
743.99	53.2056
744.10	53.4036
744.22	53.2985
744.34	53.2370
744.46	53.5404
744.58	53.3335
744.69	53.2520
744.81	53.6755
744.93	53.6065
745.05	53.1419
745.17	53.4534
745.28	53.5300
745.40	53.3346
745.52	53.4749
745.64	53.8714
745.76	54.0097
745.87	53.7643
745.99	53.8637
746.11	54.1099
746.23	54.1997
746.35	53.5683
746.46	53.7189
746.58	53.6185
746.70	53.5151
746.82	53.4066
746.94	53.9779
747.05	54.1556
747.17	54.2634
747.29	53.7965
747.41	54.0987
747.53	54.1344
747.64	53.9197
747.76	53.6927
747.88	54.3227
748.00	54.2045
748.12	54.2174
748.23	54.2412
748.35	54.3205
748.47	54.4331
748.59	54.4105
748.70	54.4097
748.82	54.5522
748.94	54.6095
749.06	54.5895
749.18	54.3285
749.29	54.2628
749.41	54.3362
749.53	54.2491
749.65	54.2926
749.76	54.5302
749.88	54.4079
750.00	54.2605
750.12	54.4911
750.24	54.5640
750.35	54.3300
750.47	54.5732
750.59	54.4827
750.71	54.7012
750.82	54.6141
750.94	54.8335
751.06	54.7326
751.18	54.8611
751.30	54.4832
751.41	54.4858
751.53	54.6101
751.65	54.5316
751.77	54.5012
751.88	55.0470
752.00	54.8070
752.12	54.7064
752.24	54.9180
752.35	54.9935
752.47	54.4643
752.59	54.9692
752.71	54.7767
752.83	55.0170
752.94	55.0942
753.06	55.2981
753.18	55.1920
753.30	55.4473
753.41	55.1988
753.53	55.1349
753.65	55.4033
753.77	55.3133
753.88	55.2334
754.00	54.9926
754.12	55.3218
754.24	55.5472
754.35	55.3762
754.47	55.3803
754.59	55.8267
754.71	55.8392
754.82	55.2911
754.94	55.4902
755.06	55.5991
755.18	55.6069
755.29	55.3171
755.41	55.5477
755.53	55.5755
755.65	55.5758
755.76	55.0843
755.88	55.1986
756.00	55.5030
756.12	55.4729
756.23	55.0736
756.35	55.5111
756.47	55.7785
756.59	55.4981
756.70	55.6810
756.82	56.0481
756.94	55.9633
757.06	55.8631
757.17	56.0644
757.29	55.8058
757.41	55.9264
757.53	55.9870
757.64	55.8259
757.76	55.5827
757.88	55.8108
758.00	56.1007
758.11	56.0706
758.23	56.2483
758.35	56.1888
758.47	56.1948
758.58	55.9350
758.70	56.1469
758.82	55.9487
758.94	56.2774
759.05	56.3048
759.17	56.0128
759.29	56.0035
759.40	56.3143
759.52	56.0756
759.64	55.8600
759.76	56.1746
759.87	56.2157
759.99	56.2865
760.11	56.3281
760.23	56.4383
760.34	56.5613
760.46	56.5294
760.58	56.1928
760.70	56.2575
760.81	56.3021
760.93	56.2835
761.05	56.4422
761.16	56.7249
761.28	56.9592
761.40	56.7061
761.52	56.5871
761.63	56.5451
761.75	56.6966
761.87	56.5314
761.98	56.9581
762.10	57.0025
762.22	57.2454
762.34	57.0149
762.45	56.4535
762.57	56.5795
762.69	56.5947
762.81	56.6283
762.92	56.5872
763.04	56.8627
763.16	56.8053
763.27	56.8292
763.39	56.3416
763.51	56.5473
763.63	57.1743
763.74	57.1778
763.86	57.3077
763.98	57.2967
764.09	57.3951
764.21	57.1418
764.33	57.0385
764.44	57.0194
764.56	57.3011
764.68	57.4561
764.80	57.0984
764.91	57.2131
765.03	57.3585
765.15	57.5598
765.26	57.1020
765.38	57.4708
765.50	57.4309
765.62	57.2688
765.73	57.2786
765.85	57.4352
765.97	57.5957
766.08	57.7559
766.20	57.8272
766.32	57.5353
766.43	57.6880
766.55	57.5920
766.67	57.5395
766.79	57.7129
766.90	58.0208
767.02	58.2086
767.14	57.6238
767.25	57.6143
767.37	57.7010
767.49	57.3141
767.60	56.9254
767.72	57.6276
767.84	57.8230
767.95	57.4976
768.07	57.6128
768.19	57.8221
768.31	57.8412
768.42	57.7273
768.54	57.6295
768.66	57.7502
768.77	57.9680
768.89	57.8895
769.01	57.6907
769.12	58.0640
769.24	58.2359
769.36	58.2156
769.47	58.0630
769.59	58.1720
769.71	58.0750
769.82	58.2170
769.94	57.8517
770.06	58.1391
770.17	58.0969
770.29	57.9539
770.41	57.9936
770.53	58.2624
770.64	58.0924
770.76	58.1249
770.88	58.7403
770.99	58.6253
771.11	58.7666
771.23	58.6181
771.34	58.5745
771.46	58.2418
771.58	58.1304
771.69	57.8261
771.81	58.3429
771.93	58.2040
772.04	58.1807
772.16	58.0129
772.28	58.2491
772.39	57.9013
772.51	58.4398
772.63	58.5713
772.74	58.1908
772.86	58.4917
772.98	58.8010
773.09	58.6007
773.21	58.5450
773.33	59.3818
773.44	59.0531
773.56	58.7529
773.68	59.0279
773.79	59.1187
773.91	59.0113
774.03	58.7287
774.14	59.0818
774.26	59.2251
774.38	59.0649
774.49	58.8524
774.61	59.2694
774.73	59.2654
774.84	58.9662
774.96	59.1947
775.08	59.3404
775.19	59.3210
775.31	59.3785
775.43	59.6351
775.54	59.1674
775.66	59.4486
775.77	59.2273
775.89	58.8291
776.01	58.5794
776.12	59.2519
776.24	59.1999
776.36	59.1474
776.47	59.0819
776.59	59.4052
776.71	59.3407
776.82	59.1906
776.94	59.1630
777.06	59.8143
777.17	59.8562
777.29	59.5277
777.41	59.5502
777.52	59.6016
777.64	59.7040
777.75	59.5553
777.87	59.4288
777.99	59.4362
778.10	59.7685
778.22	59.5546
778.34	59.3073
778.45	59.5960
778.57	59.7601
778.69	59.3215
778.80	59.3250
778.92	59.7238
779.04	59.7033
779.15	59.4435
779.27	59.6298
779.38	59.8092
779.50	59.6601
779.62	60.1660
779.73	59.7648
779.85	60.1988
779.97	60.3183
780.08	60.1603
780.20	59.6493
780.31	60.4218
780.43	60.4869
780.55	60.0234
780.66	59.6171
780.78	60.0522
780.90	60.1459
781.01	60.1033
781.13	59.8314
781.25	60.5688
781.36	60.3888
781.48	59.8016
781.59	59.5674
781.71	60.3758
781.83	60.6173
781.94	60.1718
782.06	60.6166
782.18	61.3591
782.29	60.7512
782.41	60.2191
782.52	60.6512
782.64	60.7443
782.76	60.7194
782.87	60.4670
782.99	59.9967
783.10	60.3232
783.22	60.2651
783.34	59.6631
783.45	60.3509
783.57	60.7970
783.69	60.0571
783.80	59.9133
783.92	60.1642
784.03	59.9749
784.15	60.2755
784.27	60.6690
784.38	60.6677
784.50	60.7089
784.61	60.8960
784.73	61.0319
784.85	60.7816
784.96	60.7239
785.08	60.6155
785.19	60.8093
785.31	60.8339
785.43	60.8019
785.54	60.8652
785.66	60.6464
785.77	60.8403
785.89	60.6702
786.01	60.9707
786.12	60.7642
786.24	60.9943
786.35	60.7124
786.47	61.0294
786.59	61.0478
786.70	61.4881
786.82	61.4722
786.93	61.3125
787.05	61.1491
787.17	61.3555
787.28	61.1932
787.40	61.1762
787.51	61.6938
787.63	61.4800
787.75	61.1561
787.86	61.4466
787.98	61.6024
788.09	60.9585
788.21	61.0535
788.33	61.6826
788.44	61.3559
788.56	61.5371
788.67	61.7004
788.79	61.9893
788.91	61.9677
789.02	61.6313
789.14	61.2419
789.25	61.5120
789.37	61.2825
789.48	61.2029
789.60	61.5343
789.72	61.4568
789.83	61.7021
789.95	62.0460
790.06	61.4461
790.18	61.4174
790.30	61.6240
790.41	61.3607
790.53	61.2762
790.64	61.6367
790.76	61.9774
790.87	61.9566
790.99	61.9619
791.11	61.9092
791.22	61.7165
791.34	61.5712
791.45	61.7865
791.57	61.8347
791.68	61.3150
791.80	61.5096
791.92	61.8066
792.03	61.7873
792.15	61.8427
792.26	62.0652
792.38	62.0837
792.49	62.0927
792.61	62.2772
792.73	62.8025
792.84	64.7282
792.96	59.9696
793.07	60.5131
793.19	61.4643
793.30	61.5960
793.42	60.4639
793.54	64.3329
793.65	63.9539
793.77	63.3551
793.88	62.4935
794.00	62.1069
794.11	62.7791
794.23	62.8570
794.34	62.8639
794.46	62.1321
794.58	61.4879
794.69	62.4611
794.81	62.6988
794.92	61.4530
795.04	61.9642
795.15	62.4504
795.27	62.1522
795.39	61.7508
795.50	62.6035
795.62	63.0804
795.73	63.0016
795.85	62.2299
795.96	62.4212
796.08	62.4244
796.19	62.4759
796.31	62.5839
796.42	62.6660
796.54	62.6940
796.66	63.0774
796.77	62.2658
796.89	62.7711
797.00	63.3710
797.12	62.8453
797.23	62.2431
797.35	62.6591
797.46	62.1003
797.58	62.0605
797.69	62.2638
797.81	62.6194
797.93	63.0282
798.04	62.8360
798.16	63.0243
798.27	63.3219
798.39	63.5316
798.50	63.6547
798.62	63.3249
798.73	63.2738
798.85	63.1215
798.96	62.4387
799.08	62.1920
799.19	63.0245
799.31	63.3292
799.43	63.2292
799.54	63.1202
799.66	63.3170
799.77	63.8442
799.89	63.4917
800.00	63.0353
800.12	62.8748
800.23	63.1734
800.35	62.8919
800.46	62.3821
800.58	62.7122
800.69	63.4519
800.81	62.6098
800.92	62.6244
801.04	63.4053
801.16	63.7249
801.27	63.6525
801.39	64.2155
801.50	63.5503
801.62	63.0207
801.73	63.5470
801.85	63.3668
801.96	62.8593
802.08	63.7338
802.19	64.1418
802.31	62.9966
802.42	63.0156
802.54	63.8310
802.65	63.0216
802.77	63.5235
802.88	63.3734
803.00	63.7624
803.11	63.5697
803.23	63.8140
803.34	63.5049
803.46	63.8784
803.57	64.1222
803.69	63.6287
803.80	63.9441
803.92	63.7524
804.03	63.8979
804.15	63.3800
804.26	64.1676
804.38	63.8970
804.50	63.6209
804.61	63.7359
804.73	64.5039
804.84	64.0867
804.96	64.4262
805.07	64.5294
805.19	64.3131
805.30	63.8257
805.42	63.8401
805.53	63.8689
805.65	64.1856
805.76	64.3459
805.88	64.0553
805.99	64.3661
806.11	64.1947
806.22	64.0606
806.34	64.3106
806.45	64.0689
806.57	64.1204
806.68	63.8533
806.80	63.5806
806.91	63.8783
807.03	64.5621
807.14	64.4256
807.26	64.3333
807.37	65.0892
807.49	64.4928
807.60	63.7714
807.72	63.9242
807.83	64.4800
807.95	63.9673
808.06	63.9390
808.17	64.7780
808.29	64.4406
808.40	64.0197
808.52	63.8478
808.63	64.3243
808.75	63.9135
808.86	64.1556
808.98	64.2349
809.09	64.5808
809.21	64.2855
809.32	65.1591
809.44	64.8500
809.55	65.4934
809.67	65.1330
809.78	64.8371
809.90	64.4582
810.01	63.9030
810.13	63.7963
810.24	64.4157
810.36	64.9565
810.47	64.2865
810.59	64.2918
810.70	64.3271
810.82	64.1932
810.93	64.2930
811.05	64.9248
811.16	65.4400
811.27	64.2326
811.39	64.5948
811.50	65.4693
811.62	64.9536
811.73	65.0148
811.85	65.7843
811.96	65.3627
812.08	64.5235
812.19	65.0116
812.31	65.7836
812.42	65.7855
812.54	65.3926
812.65	65.3755
812.77	65.2760
812.88	64.7886
813.00	65.7520
813.11	66.5625
813.22	67.0629
813.34	66.3289
813.45	65.5639
813.57	65.3395
813.68	65.8882
813.80	65.9242
813.91	65.5414
814.03	66.8126
814.14	66.2981
814.26	65.1991
814.37	65.1163
814.49	66.3419
814.60	65.3001
814.71	65.6685
814.83	65.7442
814.94	64.9447
815.06	65.3009
815.17	66.7376
815.29	64.9710
815.40	65.3177
815.52	66.3863
815.63	65.7078
815.75	65.8324
815.86	67.2560
815.97	66.4857
816.09	65.6117
816.20	67.2386
816.32	66.3040
816.43	66.8590
816.55	66.0278
816.66	66.7803
816.78	65.7328
816.89	66.2374
817.00	66.4914
817.12	67.0660
817.23	66.6915
817.35	67.5301
817.46	65.6876
817.58	65.4459
817.69	66.4978
817.81	66.4273
817.92	65.3073
818.03	67.4185
818.15	67.5940
818.26	67.2225
818.38	71.1950
818.49	77.0802
818.61	55.8329
818.72	56.6131
818.83	63.2111
818.95	60.3116
819.06	53.4465
819.18	76.1163
819.29	74.4178
819.41	67.4523
819.52	66.3318
819.64	68.1583
819.75	68.0302
819.86	66.7561
819.98	67.1292
820.09	68.2998
820.21	66.5334
820.32	64.6975
820.44	67.6112
820.55	67.3650
820.66	66.4077
820.78	66.5468
820.89	68.3839
821.01	66.5081
821.12	68.1450
821.23	65.8500
821.35	65.5241
821.46	66.8796
821.58	68.4165
821.69	65.2927
821.81	66.9417
821.92	66.5575
822.03	67.1289
822.15	67.3826
822.26	67.8877
822.38	68.0837
822.49	69.3569
822.61	66.3451
822.72	65.5085
822.83	68.7513
822.95	67.9336
823.06	66.0449
823.18	67.3071
823.29	68.8638
823.40	71.7804
823.52	68.3132
823.63	70.9784
823.75	75.1754
823.86	70.1346
823.97	67.5445
824.09	72.0430
824.20	73.1053
824.32	68.7116
824.43	67.3960
824.55	68.4437
824.66	70.7810
824.77	66.4141
824.89	68.0841
825.00	71.2976
825.12	70.5495
825.23	72.0792
825.34	70.5118
825.46	69.5608
825.57	76.0372
825.69	72.7297
825.80	71.9762
825.91	73.9432
826.03	77.0977
826.14	71.3777
826.26	72.7752
826.37	69.5888
826.48	78.7304
826.60	75.4704
826.71	76.4024
826.83	69.2434
826.94	66.3146
827.05	64.1911
827.17	66.5816
827.28	71.4177
827.39	77.7436
827.51	82.9721
827.62	82.8115
827.74	89.3636
827.85	88.0331
827.96	69.9194
828.08	81.5501
828.19	113.0975
828.31	97.0994
828.42	84.9109
828.53	104.5350
828.65	13.4238
828.76	0.0000
828.87	0.0000
828.99	0.0000
